XLabel,Wavenumber
YLabel,Absorbance
FileType,Absorbance
DisplayDirection,20300
PeakDirection,20312
898.826141,0.000544
900.754953,0.000581
902.683764,0.000736
904.612576,0.000291
906.541387,-0.000258
908.470199,-0.000686
910.399010,-0.000008
912.327822,0.000219
914.256633,0.000042
916.185445,0.000193
918.114256,0.000224
920.043068,0.000886
921.971879,0.001248
923.900690,-0.000036
925.829502,-0.000878
927.758313,-0.000853
929.687125,-0.000764
931.615936,-0.000770
933.544748,-0.000264
935.473559,-0.000214
937.402371,-0.001093
939.331182,-0.001405
941.259994,-0.001200
943.188805,-0.000954
945.117617,-0.000440
947.046428,-0.000120
948.975240,-0.000111
950.904051,-0.000128
952.832862,-0.000276
954.761674,-0.000551
956.690485,-0.000609
958.619297,-0.000393
960.548108,-0.000223
962.476920,-0.000143
964.405731,-0.000044
966.334543,-0.000014
968.263354,-0.000145
970.192166,-0.000269
972.120977,-0.000280
974.049789,-0.000298
975.978600,-0.000338
977.907411,-0.000314
979.836223,-0.000262
981.765034,-0.000216
983.693846,-0.000263
985.622657,-0.000327
987.551469,-0.000348
989.480280,-0.000424
991.409092,-0.000455
993.337903,-0.000350
995.266715,-0.000251
997.195526,-0.000177
999.124338,-0.000148
1001.053149,-0.000156
1002.981960,-0.000094
1004.910772,-0.000119
1006.839583,-0.000203
1008.768395,-0.000221
1010.697206,-0.000312
1012.626018,-0.000331
1014.554829,-0.000203
1016.483641,-0.000136
1018.412452,-0.000110
1020.341264,-0.000118
1022.270075,-0.000180
1024.198887,-0.000147
1026.127698,0.000014
1028.056509,0.000174
1029.985321,0.000274
1031.914132,0.000406
1033.842944,0.000624
1035.771755,0.000743
1037.700567,0.000743
1039.629378,0.000806
1041.558190,0.000830
1043.487001,0.000752
1045.415813,0.000624
1047.344624,0.000389
1049.273436,0.000162
1051.202247,0.000075
1053.131058,0.000058
1055.059870,-0.000032
1056.988681,-0.000183
1058.917493,-0.000275
1060.846304,-0.000394
1062.775116,-0.000598
1064.703927,-0.000748
1066.632739,-0.000852
1068.561550,-0.001037
1070.490362,-0.001185
1072.419173,-0.001082
1074.347985,-0.000864
1076.276796,-0.000662
1078.205607,-0.000475
1080.134419,-0.000408
1082.063230,-0.000344
1083.992042,-0.000220
1085.920853,-0.000173
1087.849665,-0.000124
1089.778476,-0.000041
1091.707288,0.000035
1093.636099,0.000100
1095.564911,0.000073
1097.493722,-0.000008
1099.422534,-0.000035
1101.351345,-0.000025
1103.280156,0.000002
1105.208968,0.000025
1107.137779,-0.000031
1109.066591,-0.000112
1110.995402,-0.000162
1112.924214,-0.000195
1114.853025,-0.000183
1116.781837,-0.000188
1118.710648,-0.000207
1120.639460,-0.000193
1122.568271,-0.000161
1124.497083,-0.000094
1126.425894,-0.000043
1128.354706,-0.000014
1130.283517,0.000034
1132.212328,0.000039
1134.141140,0.000024
1136.069951,0.000068
1137.998763,0.000186
1139.927574,0.000325
1141.856386,0.000390
1143.785197,0.000443
1145.714009,0.000557
1147.642820,0.000596
1149.571632,0.000608
1151.500443,0.000737
1153.429255,0.000756
1155.358066,0.000698
1157.286877,0.000617
1159.215689,0.000531
1161.144500,0.000441
1163.073312,0.000381
1165.002123,0.000376
1166.930935,0.000399
1168.859746,0.000367
1170.788558,0.000262
1172.717369,0.000230
1174.646181,0.000268
1176.574992,0.000247
1178.503804,0.000270
1180.432615,0.000366
1182.361426,0.000378
1184.290238,0.000312
1186.219049,0.000281
1188.147861,0.000343
1190.076672,0.000423
1192.005484,0.000462
1193.934295,0.000468
1195.863107,0.000375
1197.791918,0.000192
1199.720730,0.000003
1201.649541,-0.000048
1203.578353,0.000040
1205.507164,-0.000030
1207.435975,-0.000187
1209.364787,-0.000140
1211.293598,-0.000027
1213.222410,0.000061
1215.151221,0.000268
1217.080033,0.000498
1219.008844,0.000675
1220.937656,0.000988
1222.866467,0.001241
1224.795279,0.001432
1226.724090,0.002250
1228.652902,0.003188
1230.581713,0.004276
1232.510524,0.005980
1234.439336,0.008136
1236.368147,0.011144
1238.296959,0.015648
1240.225770,0.021952
1242.154582,0.031178
1244.083393,0.044465
1246.012205,0.061731
1247.941016,0.081950
1249.869828,0.102363
1251.798639,0.118523
1253.727451,0.126373
1255.656262,0.125143
1257.585073,0.125346
1259.513885,0.137951
1261.442696,0.147807
1263.371508,0.137160
1265.300319,0.124295
1267.229131,0.127895
1269.157942,0.138508
1271.086754,0.138917
1273.015565,0.122895
1274.944377,0.096390
1276.873188,0.070183
1278.802000,0.051147
1280.730811,0.039819
1282.659622,0.033252
1284.588434,0.029350
1286.517245,0.027564
1288.446057,0.026722
1290.374868,0.026333
1292.303680,0.026469
1294.232491,0.026604
1296.161303,0.026834
1298.090114,0.027585
1300.018926,0.028964
1301.947737,0.030132
1303.876549,0.030890
1305.805360,0.031818
1307.734172,0.032722
1309.662983,0.033751
1311.591794,0.034202
1313.520606,0.033873
1315.449417,0.032854
1317.378229,0.030812
1319.307040,0.028327
1321.235852,0.025830
1323.164663,0.027265
1325.093475,0.029616
1327.022286,0.024317
1328.951098,0.018851
1330.879909,0.018911
1332.808721,0.019016
1334.737532,0.019206
1336.666343,0.019663
1338.595155,0.019231
1340.523966,0.019018
1342.452778,0.018052
1344.381589,0.015624
1346.310401,0.012811
1348.239212,0.010375
1350.168024,0.008312
1352.096835,0.006625
1354.025647,0.005373
1355.954458,0.004653
1357.883270,0.004177
1359.812081,0.003123
1361.740892,0.001917
1363.669704,0.002292
1365.598515,0.003537
1367.527327,0.003776
1369.456138,0.003861
1371.384950,0.003789
1373.313761,0.002841
1375.242573,0.002792
1377.171384,0.003664
1379.100196,0.003968
1381.029007,0.003996
1382.957819,0.004005
1384.886630,0.003210
1386.815441,0.001945
1388.744253,0.002258
1390.673064,0.003080
1392.601876,0.001605
1394.530687,-0.000079
1396.459499,0.000100
1398.388310,0.000295
1400.317122,0.001351
1402.245933,0.002603
1404.174745,0.002244
1406.103556,0.002595
1408.032368,0.003599
1409.961179,0.003828
1411.889990,0.004057
1413.818802,0.004472
1415.747613,0.003783
1417.676425,0.001092
1419.605236,0.000882
1421.534048,0.004174
1423.462859,0.005795
1425.391671,0.006717
1427.320482,0.007554
1429.249294,0.007092
1431.178105,0.007912
1433.106917,0.008856
1435.035728,0.006318
1436.964539,0.005212
1438.893351,0.009116
1440.822162,0.011615
1442.750974,0.012081
1444.679785,0.012203
1446.608597,0.011387
1448.537408,0.011501
1450.466220,0.012664
1452.395031,0.012859
1454.323843,0.009996
1456.252654,0.004645
1458.181466,0.005954
1460.110277,0.012418
1462.039089,0.014482
1463.967900,0.013011
1465.896711,0.013702
1467.825523,0.016144
1469.754334,0.014877
1471.683146,0.010902
1473.611957,0.010920
1475.540769,0.014142
1477.469580,0.016935
1479.398392,0.018416
1481.327203,0.018756
1483.256015,0.018982
1485.184826,0.018174
1487.113638,0.015780
1489.042449,0.013758
1490.971260,0.014917
1492.900072,0.017016
1494.828883,0.015239
1496.757695,0.012529
1498.686506,0.013424
1500.615318,0.015324
1502.544129,0.015011
1504.472941,0.008898
1506.401752,0.001752
1508.330564,0.005204
1510.259375,0.010083
1512.188187,0.011380
1514.116998,0.010652
1516.045809,0.008286
1517.974621,0.006677
1519.903432,0.004359
1521.832244,0.003082
1523.761055,0.005964
1525.689867,0.007620
1527.618678,0.008745
1529.547490,0.010595
1531.476301,0.009077
1533.405113,0.006953
1535.333924,0.008669
1537.262736,0.006571
1539.191547,-0.000902
1541.120358,-0.000752
1543.049170,0.004889
1544.977981,0.009466
1546.906793,0.013157
1548.835604,0.014694
1550.764416,0.015799
1552.693227,0.016485
1554.622039,0.017010
1556.550850,0.015563
1558.479662,0.013791
1560.408473,0.026695
1562.337285,0.043331
1564.266096,0.055507
1566.194907,0.069130
1568.123719,0.083960
1570.052530,0.105666
1571.981342,0.135581
1573.910153,0.164679
1575.838965,0.203049
1577.767776,0.255803
1579.696588,0.310426
1581.625399,0.368843
1583.554211,0.429660
1585.483022,0.493291
1587.411834,0.562887
1589.340645,0.638301
1591.269456,0.717956
1593.198268,0.787728
1595.127079,0.832594
1597.055891,0.848768
1598.984702,0.847524
1600.913514,0.826674
1602.842325,0.798417
1604.771137,0.779005
1606.699948,0.755978
1608.628760,0.726568
1610.557571,0.673054
1612.486383,0.605954
1614.415194,0.530308
1616.344005,0.464382
1618.272817,0.530198
1620.201628,0.735855
1622.130440,0.946932
1624.059251,1.066145
1625.988063,1.145453
1627.916874,1.193382
1629.845686,1.181683
1631.774497,1.089257
1633.703309,0.954004
1635.632120,0.791123
1637.560932,0.653808
1639.489743,0.543963
1641.418555,0.430995
1643.347366,0.326749
1645.276177,0.233657
1647.204989,0.149940
1649.133800,0.095125
1651.062612,0.054286
1652.991423,0.016942
1654.920235,0.006801
1656.849046,0.007693
1658.777858,0.004926
1660.706669,0.001637
1662.635481,-0.000367
1664.564292,0.000998
1666.493104,0.001662
1668.421915,-0.001001
1670.350726,0.000035
1672.279538,0.003496
1674.208349,0.004579
1676.137161,0.008063
1678.065972,0.013888
1679.994784,0.017266
1681.923595,0.016888
1683.852407,0.016138
1685.781218,0.023383
1687.710030,0.031114
1689.638841,0.034226
1691.567653,0.036850
1693.496464,0.035021
1695.425275,0.033130
1697.354087,0.038851
1699.282898,0.038262
1701.211710,0.033878
1703.140521,0.037319
1705.069333,0.040873
1706.998144,0.043128
1708.926956,0.049424
1710.855767,0.058996
1712.784579,0.062556
1714.713390,0.059121
1716.642202,0.058379
1718.571013,0.064219
1720.499824,0.072352
1722.428636,0.077466
1724.357447,0.080663
1726.286259,0.083872
1728.215070,0.086751
1730.143882,0.091107
1732.072693,0.094615
1734.001505,0.102781
1735.930316,0.119868
1737.859128,0.132787
1739.787939,0.141449
1741.716751,0.148925
1743.645562,0.152063
1745.574373,0.150298
1747.503185,0.146027
1749.431996,0.141936
1751.360808,0.142199
1753.289619,0.145770
1755.218431,0.146149
1757.147242,0.142807
1759.076054,0.134854
1761.004865,0.117724
1762.933677,0.096540
1764.862488,0.078496
1766.791300,0.060104
1768.720111,0.043525
1770.648922,0.030627
1772.577734,0.021482
1774.506545,0.018960
1776.435357,0.018014
1778.364168,0.016195
1780.292980,0.015368
1782.221791,0.016002
1784.150603,0.017038
1786.079414,0.018407
1788.008226,0.019775
1789.937037,0.018207
1791.865849,0.014957
1793.794660,0.014392
1795.723471,0.015096
1797.652283,0.014309
1799.581094,0.011953
1801.509906,0.010957
1803.438717,0.012951
1805.367529,0.014864
1807.296340,0.014935
1809.225152,0.013864
1811.153963,0.012700
1813.082775,0.012046
1815.011586,0.011025
1816.940398,0.009548
1818.869209,0.008355
1820.798021,0.007361
1822.726832,0.005670
1824.655643,0.003956
1826.584455,0.003519
1828.513266,0.002678
1830.442078,0.002295
1832.370889,0.003877
1834.299701,0.004816
1836.228512,0.004676
1838.157324,0.004801
1840.086135,0.004787
1842.014947,0.003114
1843.943758,0.001269
1845.872570,0.002423
1847.801381,0.004114
1849.730192,0.004570
1851.659004,0.004783
1853.587815,0.004699
1855.516627,0.004524
1857.445438,0.004250
1859.374250,0.003919
1861.303061,0.003646
1863.231873,0.003189
1865.160684,0.002187
1867.089496,0.000181
1869.018307,-0.000960
1870.947119,0.000146
1872.875930,0.001811
1874.804741,0.003004
1876.733553,0.002633
1878.662364,0.001431
1880.591176,0.001465
1882.519987,0.002005
1884.448799,0.002445
1886.377610,0.002818
1888.306422,0.002602
1890.235233,0.002984
1892.164045,0.004035
1894.092856,0.004419
1896.021668,0.004666
1897.950479,0.005160
1899.879290,0.005388
1901.808102,0.005417
1903.736913,0.005442
1905.665725,0.005303
1907.594536,0.004921
1909.523348,0.004668
1911.452159,0.004700
1913.380971,0.004691
1915.309782,0.003910
1917.238594,0.002677
1919.167405,0.002596
1921.096217,0.002914
1923.025028,0.002668
1924.953839,0.002786
1926.882651,0.002882
1928.811462,0.002615
1930.740274,0.002413
1932.669085,0.002136
1934.597897,0.001819
1936.526708,0.001589
1938.455520,0.001378
1940.384331,0.000745
1942.313143,0.000043
1944.241954,0.000208
1946.170766,0.000649
1948.099577,0.000783
1950.028388,0.000811
1951.957200,0.000742
1953.886011,0.000638
1955.814823,0.000589
1957.743634,0.000595
1959.672446,0.000583
1961.601257,0.000598
1963.530069,0.000551
1965.458880,0.000223
1967.387692,0.000061
1969.316503,0.000317
1971.245315,0.000511
1973.174126,0.000543
1975.102938,0.000542
1977.031749,0.000531
1978.960560,0.000557
1980.889372,0.000577
1982.818183,0.000621
1984.746995,0.000613
1986.675806,0.000511
1988.604618,0.000341
1990.533429,0.000052
1992.462241,0.000019
1994.391052,0.000349
1996.319864,0.000552
1998.248675,0.000590
2000.177487,0.000635
2002.106298,0.000657
2004.035109,0.000614
2005.963921,0.000555
2007.892732,0.000506
2009.821544,0.000499
2011.750355,0.000561
2013.679167,0.000485
2015.607978,0.000221
2017.536790,0.000146
2019.465601,0.000296
2021.394413,0.000357
2023.323224,0.000355
2025.252036,0.000403
2027.180847,0.000393
2029.109658,0.000315
2031.038470,0.000265
2032.967281,0.000246
2034.896093,0.000259
2036.824904,0.000282
2038.753716,0.000244
2040.682527,0.000209
2042.611339,0.000230
2044.540150,0.000216
2046.468962,0.000190
2048.397773,0.000199
2050.326585,0.000201
2052.255396,0.000213
2054.184207,0.000213
2056.113019,0.000190
2058.041830,0.000169
2059.970642,0.000138
2061.899453,0.000090
2063.828265,0.000010
2065.757076,0.000001
2067.685888,0.000112
2069.614699,0.000207
2071.543511,0.000241
2073.472322,0.000215
2075.401134,0.000180
2077.329945,0.000191
2079.258756,0.000198
2081.187568,0.000221
2083.116379,0.000247
2085.045191,0.000215
2086.974002,0.000153
2088.902814,0.000100
2090.831625,0.000113
2092.760437,0.000192
2094.689248,0.000261
2096.618060,0.000281
2098.546871,0.000236
2100.475683,0.000217
2102.404494,0.000309
2104.333305,0.000352
2106.262117,0.000299
2108.190928,0.000293
2110.119740,0.000340
2112.048551,0.000379
2113.977363,0.000360
2115.906174,0.000359
2117.834986,0.000414
2119.763797,0.000431
2121.692609,0.000428
2123.621420,0.000396
2125.550232,0.000333
2127.479043,0.000267
2129.407854,0.000181
2131.336666,0.000161
2133.265477,0.000166
2135.194289,0.000104
2137.123100,0.000072
2139.051912,0.000080
2140.980723,0.000029
2142.909535,-0.000044
2144.838346,-0.000065
2146.767158,-0.000036
2148.695969,0.000031
2150.624781,0.000077
2152.553592,0.000085
2154.482404,0.000118
2156.411215,0.000191
2158.340026,0.000250
2160.268838,0.000275
2162.197649,0.000299
2164.126461,0.000325
2166.055272,0.000398
2167.984084,0.000526
2169.912895,0.000593
2171.841707,0.000621
2173.770518,0.000685
2175.699330,0.000774
2177.628141,0.000879
2179.556953,0.000983
2181.485764,0.001105
2183.414575,0.001258
2185.343387,0.001445
2187.272198,0.001677
2189.201010,0.001958
2191.129821,0.002327
2193.058633,0.002747
2194.987444,0.003160
2196.916256,0.003561
2198.845067,0.003949
2200.773879,0.004371
2202.702690,0.004772
2204.631502,0.005072
2206.560313,0.005318
2208.489124,0.005538
2210.417936,0.005661
2212.346747,0.005580
2214.275559,0.005320
2216.204370,0.004864
2218.133182,0.004118
2220.061993,0.003148
2221.990805,0.002160
2223.919616,0.001809
2225.848428,0.002621
2227.777239,0.004034
2229.706051,0.005313
2231.634862,0.006343
2233.563673,0.007103
2235.492485,0.007475
2237.421296,0.007447
2239.350108,0.007103
2241.278919,0.006482
2243.207731,0.005613
2245.136542,0.004620
2247.065354,0.003608
2248.994165,0.002612
2250.922977,0.001744
2252.851788,0.001064
2254.780600,0.000532
2256.709411,0.000210
2258.638222,0.000067
2260.567034,-0.000023
2262.495845,-0.000050
2264.424657,-0.000068
2266.353468,-0.000067
2268.282280,0.000021
2270.211091,0.000074
2272.139903,0.000097
2274.068714,0.000096
2275.997526,0.000028
2277.926337,0.000010
2279.855149,0.000002
2281.783960,-0.000028
2283.712771,-0.000030
2285.641583,-0.000011
2287.570394,0.000084
2289.499206,0.000208
2291.428017,0.000268
2293.356829,0.000318
2295.285640,0.000419
2297.214452,0.000553
2299.143263,0.000659
2301.072075,0.000785
2303.000886,0.000998
2304.929698,0.001280
2306.858509,0.001614
2308.787320,0.001945
2310.716132,0.002284
2312.644943,0.002717
2314.573755,0.003215
2316.502566,0.003708
2318.431378,0.004174
2320.360189,0.004653
2322.289001,0.005113
2324.217812,0.005410
2326.146624,0.005630
2328.075435,0.005995
2330.004247,0.006430
2331.933058,0.006646
2333.861870,0.006718
2335.790681,0.006930
2337.719492,0.007158
2339.648304,0.007237
2341.577115,0.007140
2343.505927,0.006795
2345.434738,0.005921
2347.363550,0.004578
2349.292361,0.004044
2351.221173,0.005090
2353.149984,0.006768
2355.078796,0.007990
2357.007607,0.008694
2358.936419,0.009044
2360.865230,0.009222
2362.794041,0.009287
2364.722853,0.009088
2366.651664,0.008604
2368.580476,0.007915
2370.509287,0.007032
2372.438099,0.005952
2374.366910,0.004713
2376.295722,0.003463
2378.224533,0.002327
2380.153345,0.001366
2382.082156,0.000660
2384.010968,0.000165
2385.939779,-0.000085
2387.868590,-0.000134
2389.797402,-0.000201
2391.726213,-0.000230
2393.655025,-0.000189
2395.583836,-0.000166
2397.512648,-0.000131
2399.441459,-0.000124
2401.370271,-0.000126
2403.299082,-0.000118
2405.227894,-0.000145
2407.156705,-0.000163
2409.085517,-0.000185
2411.014328,-0.000203
2412.943139,-0.000184
2414.871951,-0.000198
2416.800762,-0.000220
2418.729574,-0.000232
2420.658385,-0.000259
2422.587197,-0.000266
2424.516008,-0.000281
2426.444820,-0.000286
2428.373631,-0.000276
2430.302443,-0.000277
2432.231254,-0.000226
2434.160066,-0.000174
2436.088877,-0.000148
2438.017688,-0.000133
2439.946500,-0.000158
2441.875311,-0.000179
2443.804123,-0.000183
2445.732934,-0.000150
2447.661746,-0.000135
2449.590557,-0.000157
2451.519369,-0.000115
2453.448180,-0.000094
2455.376992,-0.000088
2457.305803,-0.000063
2459.234615,-0.000078
2461.163426,-0.000053
2463.092237,-0.000033
2465.021049,-0.000005
2466.949860,0.000097
2468.878672,0.000162
2470.807483,0.000197
2472.736295,0.000235
2474.665106,0.000271
2476.593918,0.000308
2478.522729,0.000299
2480.451541,0.000286
2482.380352,0.000296
2484.309164,0.000313
2486.237975,0.000320
2488.166786,0.000292
2490.095598,0.000339
2492.024409,0.000462
2493.953221,0.000466
2495.882032,0.000383
2497.810844,0.000375
2499.739655,0.000426
2501.668467,0.000462
2503.597278,0.000503
2505.526090,0.000554
2507.454901,0.000580
2509.383713,0.000597
2511.312524,0.000580
2513.241336,0.000532
2515.170147,0.000521
2517.098958,0.000531
2519.027770,0.000499
2520.956581,0.000420
2522.885393,0.000377
2524.814204,0.000397
2526.743016,0.000374
2528.671827,0.000355
2530.600639,0.000406
2532.529450,0.000420
2534.458262,0.000383
2536.387073,0.000349
2538.315885,0.000331
2540.244696,0.000323
2542.173507,0.000339
2544.102319,0.000396
2546.031130,0.000399
2547.959942,0.000353
2549.888753,0.000360
2551.817565,0.000360
2553.746376,0.000371
2555.675188,0.000423
2557.603999,0.000432
2559.532811,0.000449
2561.461622,0.000463
2563.390434,0.000437
2565.319245,0.000480
2567.248056,0.000580
2569.176868,0.000684
2571.105679,0.000761
2573.034491,0.000776
2574.963302,0.000805
2576.892114,0.000805
2578.820925,0.000762
2580.749737,0.000804
2582.678548,0.000836
2584.607360,0.000800
2586.536171,0.000797
2588.464983,0.000820
2590.393794,0.000853
2592.322605,0.000832
2594.251417,0.000703
2596.180228,0.000581
2598.109040,0.000531
2600.037851,0.000505
2601.966663,0.000487
2603.895474,0.000501
2605.824286,0.000561
2607.753097,0.000664
2609.681909,0.000788
2611.610720,0.000954
2613.539532,0.001159
2615.468343,0.001357
2617.397154,0.001587
2619.325966,0.001777
2621.254777,0.001834
2623.183589,0.001875
2625.112400,0.001951
2627.041212,0.002048
2628.970023,0.002108
2630.898835,0.002069
2632.827646,0.002021
2634.756458,0.002013
2636.685269,0.002016
2638.614081,0.001962
2640.542892,0.001778
2642.471703,0.001452
2644.400515,0.001034
2646.329326,0.000679
2648.258138,0.000484
2650.186949,0.000359
2652.115761,0.000247
2654.044572,0.000203
2655.973384,0.000241
2657.902195,0.000306
2659.831007,0.000345
2661.759818,0.000315
2663.688630,0.000238
2665.617441,0.000138
2667.546253,0.000056
2669.475064,0.000032
2671.403875,0.000038
2673.332687,0.000060
2675.261498,0.000057
2677.190310,0.000025
2679.119121,0.000031
2681.047933,0.000020
2682.976744,-0.000052
2684.905556,-0.000091
2686.834367,-0.000076
2688.763179,-0.000089
2690.691990,-0.000117
2692.620802,-0.000110
2694.549613,-0.000115
2696.478424,-0.000123
2698.407236,-0.000131
2700.336047,-0.000159
2702.264859,-0.000152
2704.193670,-0.000151
2706.122482,-0.000164
2708.051293,-0.000154
2709.980105,-0.000182
2711.908916,-0.000195
2713.837728,-0.000157
2715.766539,-0.000140
2717.695351,-0.000133
2719.624162,-0.000133
2721.552973,-0.000150
2723.481785,-0.000195
2725.410596,-0.000238
2727.339408,-0.000229
2729.268219,-0.000226
2731.197031,-0.000225
2733.125842,-0.000218
2735.054654,-0.000247
2736.983465,-0.000278
2738.912277,-0.000320
2740.841088,-0.000345
2742.769900,-0.000360
2744.698711,-0.000401
2746.627522,-0.000360
2748.556334,-0.000279
2750.485145,-0.000234
2752.413957,-0.000201
2754.342768,-0.000263
2756.271580,-0.000367
2758.200391,-0.000400
2760.129203,-0.000412
2762.058014,-0.000401
2763.986826,-0.000381
2765.915637,-0.000442
2767.844449,-0.000511
2769.773260,-0.000480
2771.702071,-0.000395
2773.630883,-0.000360
2775.559694,-0.000388
2777.488506,-0.000405
2779.417317,-0.000410
2781.346129,-0.000450
2783.274940,-0.000480
2785.203752,-0.000474
2787.132563,-0.000500
2789.061375,-0.000562
2790.990186,-0.000554
2792.918998,-0.000501
2794.847809,-0.000479
2796.776620,-0.000458
2798.705432,-0.000478
2800.634243,-0.000532
2802.563055,-0.000523
2804.491866,-0.000509
2806.420678,-0.000586
2808.349489,-0.000675
2810.278301,-0.000673
2812.207112,-0.000597
2814.135924,-0.000524
2816.064735,-0.000459
2817.993547,-0.000468
2819.922358,-0.000469
2821.851169,-0.000350
2823.779981,-0.000268
2825.708792,-0.000267
2827.637604,-0.000261
2829.566415,-0.000222
2831.495227,-0.000087
2833.424038,0.000049
2835.352850,0.000127
2837.281661,0.000224
2839.210473,0.000336
2841.139284,0.000500
2843.068096,0.000736
2844.996907,0.001060
2846.925719,0.001450
2848.854530,0.001773
2850.783341,0.002178
2852.712153,0.002842
2854.640964,0.003663
2856.569776,0.004563
2858.498587,0.005631
2860.427399,0.007048
2862.356210,0.008834
2864.285022,0.010928
2866.213833,0.013280
2868.142645,0.015946
2870.071456,0.019099
2872.000268,0.022555
2873.929079,0.026308
2875.857890,0.030495
2877.786702,0.034748
2879.715513,0.038893
2881.644325,0.042847
2883.573136,0.046380
2885.501948,0.049335
2887.430759,0.051574
2889.359571,0.052948
2891.288382,0.053342
2893.217194,0.052678
2895.146005,0.050595
2897.074817,0.047382
2899.003628,0.043550
2900.932439,0.039372
2902.861251,0.034590
2904.790062,0.028068
2906.718874,0.025448
2908.647685,0.034743
2910.576497,0.051249
2912.505308,0.065796
2914.434120,0.076508
2916.362931,0.082779
2918.291743,0.083815
2920.220554,0.080082
2922.149366,0.072189
2924.078177,0.061158
2926.006988,0.048212
2927.935800,0.034994
2929.864611,0.022979
2931.793423,0.013169
2933.722234,0.006261
2935.651046,0.002184
2937.579857,0.000240
2939.508669,-0.000362
2941.437480,-0.000340
2943.366292,-0.000141
2945.295103,0.000036
2947.223915,0.000190
2949.152726,0.000406
2951.081537,0.000752
2953.010349,0.001153
2954.939160,0.001494
2956.867972,0.001799
2958.796783,0.002124
2960.725595,0.002390
2962.654406,0.002622
2964.583218,0.002902
2966.512029,0.003172
2968.440841,0.003323
2970.369652,0.003324
2972.298464,0.003347
2974.227275,0.003538
2976.156086,0.003791
2978.084898,0.003871
2980.013709,0.003680
2981.942521,0.003349
2983.871332,0.002902
2985.800144,0.002379
2987.728955,0.001986
2989.657767,0.001722
2991.586578,0.001478
2993.515390,0.001269
2995.444201,0.001118
2997.373013,0.001066
2999.301824,0.001068
3001.230635,0.001006
3003.159447,0.000897
3005.088258,0.000880
3007.017070,0.000967
3008.945881,0.000961
3010.874693,0.000849
3012.803504,0.000749
3014.732316,0.000638
3016.661127,0.000525
3018.589939,0.000440
3020.518750,0.000405
3022.447562,0.000382
3024.376373,0.000313
3026.305185,0.000251
3028.233996,0.000201
3030.162807,0.000128
3032.091619,0.000069
3034.020430,0.000085
3035.949242,0.000167
3037.878053,0.000237
3039.806865,0.000230
3041.735676,0.000186
3043.664488,0.000202
3045.593299,0.000224
3047.522111,0.000220
3049.450922,0.000220
3051.379734,0.000197
3053.308545,0.000180
3055.237356,0.000142
3057.166168,0.000087
3059.094979,0.000104
3061.023791,0.000116
3062.952602,0.000060
3064.881414,0.000007
3066.810225,0.000004
3068.739037,0.000018
3070.667848,0.000018
3072.596660,0.000034
3074.525471,0.000008
3076.454283,-0.000125
3078.383094,-0.000192
3080.311905,-0.000148
3082.240717,-0.000037
3084.169528,0.000076
3086.098340,0.000212
3088.027151,0.000325
3089.955963,0.000418
3091.884774,0.000585
3093.813586,0.000762
3095.742397,0.000821
3097.671209,0.000969
3099.600020,0.001251
3101.528832,0.001501
3103.457643,0.001788
3105.386454,0.002081
3107.315266,0.002252
3109.244077,0.002317
3111.172889,0.002329
3113.101700,0.002331
3115.030512,0.002326
3116.959323,0.002278
3118.888135,0.002227
3120.816946,0.002181
3122.745758,0.002083
3124.674569,0.001967
3126.603381,0.001824
3128.532192,0.001692
3130.461003,0.001568
3132.389815,0.001274
3134.318626,0.000977
3136.247438,0.000844
3138.176249,0.000634
3140.105061,0.000395
3142.033872,0.000349
3143.962684,0.000405
3145.891495,0.000472
3147.820307,0.000472
3149.749118,0.000353
3151.677930,0.000262
3153.606741,0.000202
3155.535552,0.000142
3157.464364,0.000181
3159.393175,0.000188
3161.321987,0.000117
3163.250798,0.000161
3165.179610,0.000230
3167.108421,0.000139
3169.037233,0.000028
3170.966044,0.000002
3172.894856,-0.000006
3174.823667,0.000012
3176.752479,0.000034
3178.681290,0.000056
3180.610102,0.000092
3182.538913,0.000038
3184.467724,-0.000073
3186.396536,-0.000126
3188.325347,-0.000160
3190.254159,-0.000152
3192.182970,-0.000101
3194.111782,-0.000170
3196.040593,-0.000283
3197.969405,-0.000281
3199.898216,-0.000251
3201.827028,-0.000254
3203.755839,-0.000274
3205.684651,-0.000237
3207.613462,-0.000212
3209.542273,-0.000302
3211.471085,-0.000366
3213.399896,-0.000405
3215.328708,-0.000438
3217.257519,-0.000452
3219.186331,-0.000506
3221.115142,-0.000484
3223.043954,-0.000429
3224.972765,-0.000380
3226.901577,-0.000294
3228.830388,-0.000333
3230.759200,-0.000413
3232.688011,-0.000364
3234.616822,-0.000271
3236.545634,-0.000240
3238.474445,-0.000245
3240.403257,-0.000202
3242.332068,-0.000239
3244.260880,-0.000344
3246.189691,-0.000270
3248.118503,-0.000141
3250.047314,-0.000102
3251.976126,-0.000082
3253.904937,-0.000036
3255.833749,0.000091
3257.762560,0.000116
3259.691371,0.000024
3261.620183,0.000080
3263.548994,0.000165
3265.477806,0.000204
3267.406617,0.000313
3269.335429,0.000300
3271.264240,0.000194
3273.193052,0.000094
3275.121863,0.000041
3277.050675,0.000097
3278.979486,0.000186
3280.908298,0.000246
3282.837109,0.000266
3284.765920,0.000229
3286.694732,0.000170
3288.623543,0.000085
3290.552355,-0.000069
3292.481166,-0.000147
3294.409978,-0.000037
3296.338789,0.000043
3298.267601,0.000059
3300.196412,0.000149
3302.125224,0.000152
3304.054035,0.000040
3305.982847,-0.000053
3307.911658,-0.000104
3309.840469,-0.000088
3311.769281,-0.000041
3313.698092,-0.000013
3315.626904,-0.000036
3317.555715,-0.000042
3319.484527,-0.000017
3321.413338,-0.000133
3323.342150,-0.000256
3325.270961,-0.000254
3327.199773,-0.000290
3329.128584,-0.000327
3331.057396,-0.000348
3332.986207,-0.000388
3334.915018,-0.000398
3336.843830,-0.000375
3338.772641,-0.000300
3340.701453,-0.000279
3342.630264,-0.000276
3344.559076,-0.000150
3346.487887,-0.000056
3348.416699,-0.000076
3350.345510,-0.000125
3352.274322,-0.000101
3354.203133,-0.000025
3356.131945,-0.000047
3358.060756,-0.000117
3359.989568,-0.000189
3361.918379,-0.000275
3363.847190,-0.000274
3365.776002,-0.000243
3367.704813,-0.000265
3369.633625,-0.000161
3371.562436,0.000007
3373.491248,-0.000083
3375.420059,-0.000272
3377.348871,-0.000241
3379.277682,-0.000017
3381.206494,0.000246
3383.135305,0.000378
3385.064117,0.000400
3386.992928,0.000430
3388.921739,0.000424
3390.850551,0.000484
3392.779362,0.000387
3394.708174,0.000216
3396.636985,0.000181
3398.565797,0.000199
3400.494608,0.000122
3402.423420,-0.000022
3404.352231,-0.000094
3406.281043,-0.000142
3408.209854,-0.000168
3410.138666,-0.000105
3412.067477,-0.000097
3413.996288,-0.000154
3415.925100,-0.000243
3417.853911,-0.000385
3419.782723,-0.000512
3421.711534,-0.000555
3423.640346,-0.000436
3425.569157,-0.000329
3427.497969,-0.000288
3429.426780,-0.000122
3431.355592,0.000003
3433.284403,0.000003
3435.213215,0.000016
3437.142026,0.000109
3439.070837,0.000286
3440.999649,0.000303
3442.928460,0.000078
3444.857272,-0.000135
3446.786083,-0.000154
3448.714895,0.000037
3450.643706,0.000191
3452.572518,0.000077
3454.501329,-0.000013
3456.430141,0.000170
3458.358952,0.000255
3460.287764,0.000096
3462.216575,-0.000019
3464.145386,-0.000024
3466.074198,0.000037
3468.003009,0.000135
3469.931821,0.000186
3471.860632,0.000157
3473.789444,0.000150
3475.718255,0.000253
3477.647067,0.000208
3479.575878,-0.000073
3481.504690,-0.000179
3483.433501,0.000021
3485.362313,0.000183
3487.291124,0.000151
3489.219935,0.000254
3491.148747,0.000630
3493.077558,0.000787
3495.006370,0.000608
3496.935181,0.000498
3498.863993,0.000430
3500.792804,0.000248
3502.721616,-0.000033
3504.650427,-0.000093
3506.579239,0.000085
3508.508050,0.000127
3510.436862,0.000049
3512.365673,0.000199
3514.294484,0.000345
3516.223296,0.000485
3518.152107,0.000745
3520.080919,0.000769
3522.009730,0.000682
3523.938542,0.000917
3525.867353,0.001425
3527.796165,0.002009
3529.724976,0.002893
3531.653788,0.004031
3533.582599,0.004679
3535.511411,0.004854
3537.440222,0.005038
3539.369034,0.005140
3541.297845,0.005007
3543.226656,0.004439
3545.155468,0.003687
3547.084279,0.003547
3549.013091,0.004317
3550.941902,0.005217
3552.870714,0.005383
3554.799525,0.005349
3556.728337,0.005648
3558.657148,0.005892
3560.585960,0.006022
3562.514771,0.005985
3564.443583,0.005525
3566.372394,0.004783
3568.301205,0.004924
3570.230017,0.006278
3572.158828,0.006968
3574.087640,0.006422
3576.016451,0.005609
3577.945263,0.004837
3579.874074,0.003974
3581.802886,0.002739
3583.731697,0.001263
3585.660509,-0.000258
3587.589320,-0.000533
3589.518132,0.001206
3591.446943,0.001891
3593.375754,0.000758
3595.304566,0.000722
3597.233377,0.002022
3599.162189,0.003279
3601.091000,0.004122
3603.019812,0.004462
3604.948623,0.004248
3606.877435,0.003179
3608.806246,0.002024
3610.735058,0.001799
3612.663869,0.001659
3614.592681,0.001547
3616.521492,0.001350
3618.450303,0.000406
3620.379115,0.000653
3622.307926,0.002043
3624.236738,0.002321
3626.165549,0.000915
3628.094361,-0.001504
3630.023172,-0.001248
3631.951984,0.001735
3633.880795,0.003388
3635.809607,0.004036
3637.738418,0.004748
3639.667230,0.004962
3641.596041,0.004751
3643.524852,0.004171
3645.453664,0.002520
3647.382475,-0.000092
3649.311287,-0.001546
3651.240098,0.000447
3653.168910,0.003708
3655.097721,0.004649
3657.026533,0.004879
3658.955344,0.006404
3660.884156,0.007406
3662.812967,0.007511
3664.741779,0.007181
3666.670590,0.006055
3668.599401,0.003575
3670.528213,0.001795
3672.457024,0.002445
3674.385836,0.001763
3676.314647,0.001461
3678.243459,0.004655
3680.172270,0.007090
3682.101082,0.007842
3684.029893,0.007920
3685.958705,0.006615
3687.887516,0.004422
3689.816328,0.003792
3691.745139,0.005765
3693.673951,0.007944
3695.602762,0.008862
3697.531573,0.009035
3699.460385,0.008617
3701.389196,0.007750
3703.318008,0.007745
3705.246819,0.008187
3707.175631,0.007238
3709.104442,0.005379
3711.033254,0.004007
3712.962065,0.004685
3714.890877,0.006965
3716.819688,0.008011
3718.748500,0.007650
3720.677311,0.007016
3722.606122,0.006589
3724.534934,0.006442
3726.463745,0.006386
3728.392557,0.006476
3730.321368,0.005471
3732.250180,0.003090
3734.178991,0.001475
3736.107803,0.001690
3738.036614,0.003099
3739.965426,0.004165
3741.894237,0.002910
3743.823049,-0.000399
3745.751860,-0.001277
3747.680671,0.000018
3749.609483,-0.000724
3751.538294,-0.000712
3753.467106,0.002150
3755.395917,0.004494
3757.324729,0.005034
3759.253540,0.004697
3761.182352,0.005342
3763.111163,0.006198
3765.039975,0.005743
3766.968786,0.005306
3768.897598,0.005174
3770.826409,0.005414
3772.755220,0.006495
3774.684032,0.007073
3776.612843,0.006582
3778.541655,0.005608
3780.470466,0.005360
3782.399278,0.006062
3784.328089,0.006345
3786.256901,0.006436
3788.185712,0.006832
3790.114524,0.006694
3792.043335,0.006262
3793.972147,0.005532
3795.900958,0.003909
3797.829769,0.002935
3799.758581,0.001972
3801.687392,0.000491
3803.616204,0.001577
3805.545015,0.002650
3807.473827,0.002482
3809.402638,0.003791
3811.331450,0.004758
3813.260261,0.003727
3815.189073,0.001267
3817.117884,0.000059
3819.046696,0.000276
3820.975507,-0.000528
3822.904318,0.000660
3824.833130,0.002896
3826.761941,0.003080
3828.690753,0.002989
3830.619564,0.002425
3832.548376,0.001146
3834.477187,0.000273
3836.405999,-0.000953
3838.334810,-0.001688
3840.263622,-0.000515
3842.192433,0.001025
3844.121245,0.002012
3846.050056,0.002708
3847.978867,0.002264
3849.907679,0.000097
3851.836490,-0.003468
3853.765302,-0.005641
3855.694113,-0.002696
3857.622925,0.000981
3859.551736,0.001764
3861.480548,0.001078
3863.409359,-0.000045
3865.338171,-0.000519
3867.266982,-0.000308
3869.195794,-0.001209
3871.124605,-0.001160
3873.053417,0.000299
3874.982228,0.000881
3876.911039,0.001402
3878.839851,0.000905
3880.768662,-0.000262
3882.697474,0.000084
3884.626285,-0.000295
3886.555097,-0.000601
3888.483908,0.000648
3890.412720,0.000575
3892.341531,0.000150
3894.270343,0.001049
3896.199154,0.001104
3898.127966,-0.000372
3900.056777,-0.001837
3901.985588,-0.002342
3903.914400,-0.001928
3905.843211,-0.000392
3907.772023,0.001420
3909.700834,0.002032
3911.629646,0.001862
3913.558457,0.001591
3915.487269,0.000911
3917.416080,0.000230
3919.344892,0.000239
3921.273703,0.000584
3923.202515,0.000555
3925.131326,0.000416
3927.060137,0.000699
3928.988949,0.000812
3930.917760,0.000361
3932.846572,0.000215
3934.775383,0.000709
3936.704195,0.001017
3938.633006,0.000917
3940.561818,0.000548
3942.490629,0.000042
3944.419441,0.000038
3946.348252,0.000277
3948.277064,0.000174
3950.205875,0.000111
3952.134686,0.000291
3954.063498,0.000485
3955.992309,0.000432
3957.921121,0.000265
3959.849932,0.000245
3961.778744,0.000202
3963.707555,0.000176
3965.636367,0.000298
3967.565178,0.000290
3969.493990,0.000260
3971.422801,0.000266
3973.351613,0.000215
3975.280424,0.000219
3977.209235,0.000284
3979.138047,0.000379
3981.066858,0.000461
3982.995670,0.000504
3984.924481,0.000517
3986.853293,0.000506
3988.782104,0.000506
3990.710916,0.000444
3992.639727,0.000418
3994.568539,0.000491
3996.497350,0.000516
3998.426162,0.000569
4000.354973,0.000596
