XLabel,Wavenumber
YLabel,Absorbance
FileType,Absorbance
DisplayDirection,20300
PeakDirection,20312
898.826141,0.000361
900.754953,0.000242
902.683764,0.000065
904.612576,-0.000287
906.541387,-0.000410
908.470199,-0.000794
910.399010,-0.000520
912.327822,0.000030
914.256633,-0.000018
916.185445,-0.000267
918.114256,-0.000313
920.043068,0.000034
921.971879,0.000019
923.900690,0.000195
925.829502,0.000710
927.758313,0.000509
929.687125,0.000567
931.615936,0.000310
933.544748,-0.000121
935.473559,0.000117
937.402371,0.000316
939.331182,0.000481
941.259994,0.000155
943.188805,-0.000746
945.117617,-0.000928
947.046428,-0.000528
948.975240,-0.000365
950.904051,-0.000330
952.832862,-0.000132
954.761674,0.000002
956.690485,0.000159
958.619297,0.000531
960.548108,0.000548
962.476920,0.000307
964.405731,0.000129
966.334543,0.000009
968.263354,0.000423
970.192166,0.000862
972.120977,0.000679
974.049789,0.000318
975.978600,0.000195
977.907411,0.000088
979.836223,-0.000080
981.765034,-0.000065
983.693846,0.000058
985.622657,0.000034
987.551469,-0.000049
989.480280,-0.000108
991.409092,-0.000050
993.337903,0.000092
995.266715,0.000133
997.195526,0.000103
999.124338,-0.000022
1001.053149,-0.000102
1002.981960,0.000021
1004.910772,0.000070
1006.839583,-0.000032
1008.768395,-0.000072
1010.697206,-0.000059
1012.626018,-0.000104
1014.554829,-0.000157
1016.483641,-0.000134
1018.412452,-0.000101
1020.341264,-0.000092
1022.270075,-0.000046
1024.198887,-0.000037
1026.127698,-0.000050
1028.056509,0.000068
1029.985321,0.000070
1031.914132,-0.000066
1033.842944,0.000020
1035.771755,0.000133
1037.700567,0.000150
1039.629378,0.000207
1041.558190,0.000123
1043.487001,-0.000059
1045.415813,-0.000137
1047.344624,-0.000116
1049.273436,-0.000142
1051.202247,-0.000218
1053.131058,-0.000249
1055.059870,-0.000339
1056.988681,-0.000395
1058.917493,-0.000329
1060.846304,-0.000316
1062.775116,-0.000350
1064.703927,-0.000380
1066.632739,-0.000380
1068.561550,-0.000300
1070.490362,-0.000206
1072.419173,-0.000168
1074.347985,-0.000166
1076.276796,-0.000102
1078.205607,-0.000007
1080.134419,0.000038
1082.063230,0.000090
1083.992042,0.000119
1085.920853,0.000132
1087.849665,0.000170
1089.778476,0.000146
1091.707288,0.000129
1093.636099,0.000206
1095.564911,0.000241
1097.493722,0.000204
1099.422534,0.000192
1101.351345,0.000146
1103.280156,0.000085
1105.208968,0.000113
1107.137779,0.000119
1109.066591,0.000145
1110.995402,0.000242
1112.924214,0.000272
1114.853025,0.000284
1116.781837,0.000331
1118.710648,0.000358
1120.639460,0.000278
1122.568271,0.000226
1124.497083,0.000316
1126.425894,0.000366
1128.354706,0.000324
1130.283517,0.000320
1132.212328,0.000244
1134.141140,0.000143
1136.069951,0.000120
1137.998763,0.000031
1139.927574,-0.000058
1141.856386,-0.000064
1143.785197,-0.000085
1145.714009,-0.000049
1147.642820,0.000018
1149.571632,-0.000043
1151.500443,-0.000140
1153.429255,-0.000119
1155.358066,-0.000089
1157.286877,-0.000093
1159.215689,-0.000036
1161.144500,-0.000034
1163.073312,-0.000110
1165.002123,-0.000119
1166.930935,-0.000025
1168.859746,0.000116
1170.788558,0.000171
1172.717369,0.000044
1174.646181,-0.000137
1176.574992,-0.000132
1178.503804,-0.000021
1180.432615,0.000016
1182.361426,0.000038
1184.290238,0.000050
1186.219049,0.000056
1188.147861,0.000122
1190.076672,0.000210
1192.005484,0.000292
1193.934295,0.000337
1195.863107,0.000350
1197.791918,0.000269
1199.720730,0.000092
1201.649541,0.000020
1203.578353,0.000090
1205.507164,0.000152
1207.435975,0.000208
1209.364787,0.000300
1211.293598,0.000478
1213.222410,0.000656
1215.151221,0.000913
1217.080033,0.001289
1219.008844,0.001581
1220.937656,0.002080
1222.866467,0.002635
1224.795279,0.003057
1226.724090,0.003895
1228.652902,0.004937
1230.581713,0.006109
1232.510524,0.007809
1234.439336,0.009540
1236.368147,0.011469
1238.296959,0.014295
1240.225770,0.017508
1242.154582,0.021445
1244.083393,0.026601
1246.012205,0.032313
1247.941016,0.038591
1249.869828,0.044617
1251.798639,0.048884
1253.727451,0.049496
1255.656262,0.046711
1257.585073,0.044656
1259.513885,0.045926
1261.442696,0.052214
1263.371508,0.056833
1265.300319,0.051142
1267.229131,0.046299
1269.157942,0.049913
1271.086754,0.052704
1273.015565,0.050223
1274.944377,0.044314
1276.873188,0.037235
1278.802000,0.031406
1280.730811,0.027219
1282.659622,0.023721
1284.588434,0.020456
1286.517245,0.017910
1288.446057,0.015590
1290.374868,0.013459
1292.303680,0.011839
1294.232491,0.010204
1296.161303,0.009086
1298.090114,0.008557
1300.018926,0.008134
1301.947737,0.007885
1303.876549,0.007640
1305.805360,0.007460
1307.734172,0.007552
1309.662983,0.007722
1311.591794,0.007606
1313.520606,0.007334
1315.449417,0.006942
1317.378229,0.006267
1319.307040,0.005623
1321.235852,0.005160
1323.164663,0.005214
1325.093475,0.005386
1327.022286,0.004660
1328.951098,0.003968
1330.879909,0.003904
1332.808721,0.003693
1334.737532,0.003615
1336.666343,0.003648
1338.595155,0.003353
1340.523966,0.003145
1342.452778,0.002963
1344.381589,0.002561
1346.310401,0.002090
1348.239212,0.001612
1350.168024,0.001263
1352.096835,0.000955
1354.025647,0.000560
1355.954458,0.000367
1357.883270,0.000302
1359.812081,0.000030
1361.740892,-0.000169
1363.669704,-0.000003
1365.598515,0.000085
1367.527327,0.000026
1369.456138,0.000140
1371.384950,0.000253
1373.313761,0.000057
1375.242573,-0.000069
1377.171384,0.000177
1379.100196,0.000410
1381.029007,0.000453
1382.957819,0.000602
1384.886630,0.000811
1386.815441,0.000859
1388.744253,0.001020
1390.673064,0.001229
1392.601876,0.001102
1394.530687,0.000996
1396.459499,0.001090
1398.388310,0.001042
1400.317122,0.001148
1402.245933,0.001329
1404.174745,0.001231
1406.103556,0.001273
1408.032368,0.001440
1409.961179,0.001371
1411.889990,0.001290
1413.818802,0.001328
1415.747613,0.001187
1417.676425,0.000799
1419.605236,0.000826
1421.534048,0.001235
1423.462859,0.001391
1425.391671,0.001532
1427.320482,0.001587
1429.249294,0.001334
1431.178105,0.001329
1433.106917,0.001486
1435.035728,0.001117
1436.964539,0.000869
1438.893351,0.001341
1440.822162,0.001677
1442.750974,0.001688
1444.679785,0.001479
1446.608597,0.001282
1448.537408,0.001360
1450.466220,0.001421
1452.395031,0.001296
1454.323843,0.000751
1456.252654,-0.000030
1458.181466,0.000308
1460.110277,0.001226
1462.039089,0.001400
1463.967900,0.001061
1465.896711,0.001128
1467.825523,0.001469
1469.754334,0.001131
1471.683146,0.000355
1473.611957,0.000235
1475.540769,0.000679
1477.469580,0.001094
1479.398392,0.001189
1481.327203,0.001120
1483.256015,0.001172
1485.184826,0.001051
1487.113638,0.000647
1489.042449,0.000310
1490.971260,0.000521
1492.900072,0.000929
1494.828883,0.000808
1496.757695,0.000558
1498.686506,0.000756
1500.615318,0.001135
1502.544129,0.001174
1504.472941,0.000319
1506.401752,-0.000604
1508.330564,0.000059
1510.259375,0.000810
1512.188187,0.001024
1514.116998,0.000959
1516.045809,0.000602
1517.974621,0.000419
1519.903432,0.000162
1521.832244,-0.000014
1523.761055,0.000538
1525.689867,0.000857
1527.618678,0.001038
1529.547490,0.001375
1531.476301,0.001134
1533.405113,0.000853
1535.333924,0.001320
1537.262736,0.001162
1539.191547,-0.000064
1541.120358,-0.000004
1543.049170,0.000878
1544.977981,0.001722
1546.906793,0.002483
1548.835604,0.002999
1550.764416,0.003603
1552.693227,0.004275
1554.622039,0.005304
1556.550850,0.006248
1558.479662,0.007825
1560.408473,0.012791
1562.337285,0.018077
1564.266096,0.023433
1566.194907,0.030341
1568.123719,0.038381
1570.052530,0.049911
1571.981342,0.064384
1573.910153,0.079512
1575.838965,0.100854
1577.767776,0.127930
1579.696588,0.155749
1581.625399,0.187791
1583.554211,0.223191
1585.483022,0.261391
1587.411834,0.302696
1589.340645,0.346865
1591.269456,0.392920
1593.198268,0.433634
1595.127079,0.463617
1597.055891,0.480728
1598.984702,0.487796
1600.913514,0.483580
1602.842325,0.471103
1604.771137,0.457643
1606.699948,0.438716
1608.628760,0.414312
1610.557571,0.378431
1612.486383,0.336916
1614.415194,0.293276
1616.344005,0.252565
1618.272817,0.288398
1620.201628,0.404320
1622.130440,0.527871
1624.059251,0.611846
1625.988063,0.658649
1627.916874,0.681305
1629.845686,0.670881
1631.774497,0.622108
1633.703309,0.552721
1635.632120,0.462032
1637.560932,0.379645
1639.489743,0.313591
1641.418555,0.241938
1643.347366,0.177814
1645.276177,0.127074
1647.204989,0.081302
1649.133800,0.051087
1651.062612,0.032186
1652.991423,0.015502
1654.920235,0.008042
1656.849046,0.006133
1658.777858,0.003942
1660.706669,0.002129
1662.635481,0.000848
1664.564292,0.000337
1666.493104,0.000104
1668.421915,-0.000486
1670.350726,0.000214
1672.279538,0.001534
1674.208349,0.002777
1676.137161,0.004745
1678.065972,0.007207
1679.994784,0.009221
1681.923595,0.010355
1683.852407,0.011077
1685.781218,0.012051
1687.710030,0.012368
1689.638841,0.011286
1691.567653,0.009807
1693.496464,0.007242
1695.425275,0.007538
1697.354087,0.016367
1699.282898,0.018889
1701.211710,0.008826
1703.140521,0.005337
1705.069333,0.008982
1706.998144,0.013398
1708.926956,0.017950
1710.855767,0.021824
1712.784579,0.023579
1714.713390,0.023407
1716.642202,0.022693
1718.571013,0.022366
1720.499824,0.022132
1722.428636,0.021538
1724.357447,0.020748
1726.286259,0.020297
1728.215070,0.020358
1730.143882,0.021208
1732.072693,0.022408
1734.001505,0.024973
1735.930316,0.029183
1737.859128,0.032397
1739.787939,0.034952
1741.716751,0.037045
1743.645562,0.037897
1745.574373,0.037526
1747.503185,0.036545
1749.431996,0.035665
1751.360808,0.035752
1753.289619,0.036530
1755.218431,0.036615
1757.147242,0.035840
1759.076054,0.033776
1761.004865,0.029082
1762.933677,0.022872
1764.862488,0.017658
1766.791300,0.012611
1768.720111,0.007999
1770.648922,0.004613
1772.577734,0.002225
1774.506545,0.001252
1776.435357,0.000709
1778.364168,0.000158
1780.292980,-0.000089
1782.221791,-0.000052
1784.150603,0.000148
1786.079414,0.000300
1788.008226,0.000462
1789.937037,0.000314
1791.865849,-0.000112
1793.794660,-0.000087
1795.723471,0.000247
1797.652283,0.000321
1799.581094,0.000058
1801.509906,0.000014
1803.438717,0.000488
1805.367529,0.000969
1807.296340,0.001187
1809.225152,0.001214
1811.153963,0.001396
1813.082775,0.001920
1815.011586,0.002366
1816.940398,0.002696
1818.869209,0.003149
1820.798021,0.003588
1822.726832,0.003833
1824.655643,0.004115
1826.584455,0.004666
1828.513266,0.005060
1830.442078,0.005303
1832.370889,0.005943
1834.299701,0.006660
1836.228512,0.007190
1838.157324,0.007706
1840.086135,0.008102
1842.014947,0.008438
1843.943758,0.008744
1845.872570,0.008887
1847.801381,0.008930
1849.730192,0.008894
1851.659004,0.008787
1853.587815,0.008595
1855.516627,0.008248
1857.445438,0.007726
1859.374250,0.007209
1861.303061,0.006465
1863.231873,0.005444
1865.160684,0.004279
1867.089496,0.002735
1869.018307,0.001286
1870.947119,0.000140
1872.875930,0.001562
1874.804741,0.005194
1876.733553,0.003916
1878.662364,-0.000195
1880.591176,-0.000003
1882.519987,0.002166
1884.448799,0.003954
1886.377610,0.005801
1888.306422,0.007353
1890.235233,0.008898
1892.164045,0.010220
1894.092856,0.011388
1896.021668,0.012370
1897.950479,0.012998
1899.879290,0.013492
1901.808102,0.013768
1903.736913,0.013911
1905.665725,0.013892
1907.594536,0.013701
1909.523348,0.013384
1911.452159,0.012861
1913.380971,0.012258
1915.309782,0.011390
1917.238594,0.010229
1919.167405,0.009440
1921.096217,0.008925
1923.025028,0.008134
1924.953839,0.007307
1926.882651,0.006494
1928.811462,0.005622
1930.740274,0.004879
1932.669085,0.004205
1934.597897,0.003518
1936.526708,0.002860
1938.455520,0.002338
1940.384331,0.001832
1942.313143,0.001317
1944.241954,0.001029
1946.170766,0.000883
1948.099577,0.000757
1950.028388,0.000542
1951.957200,0.000347
1953.886011,0.000231
1955.814823,0.000127
1957.743634,0.000073
1959.672446,0.000048
1961.601257,-0.000020
1963.530069,-0.000091
1965.458880,-0.000152
1967.387692,-0.000153
1969.316503,-0.000085
1971.245315,-0.000078
1973.174126,-0.000151
1975.102938,-0.000177
1977.031749,-0.000145
1978.960560,-0.000118
1980.889372,-0.000116
1982.818183,-0.000119
1984.746995,-0.000131
1986.675806,-0.000159
1988.604618,-0.000151
1990.533429,-0.000154
1992.462241,-0.000142
1994.391052,-0.000051
1996.319864,-0.000045
1998.248675,-0.000116
2000.177487,-0.000120
2002.106298,-0.000122
2004.035109,-0.000134
2005.963921,-0.000101
2007.892732,-0.000048
2009.821544,0.000002
2011.750355,0.000018
2013.679167,0.000011
2015.607978,-0.000008
2017.536790,-0.000060
2019.465601,-0.000024
2021.394413,0.000098
2023.323224,0.000123
2025.252036,0.000061
2027.180847,0.000035
2029.109658,0.000023
2031.038470,0.000002
2032.967281,0.000032
2034.896093,0.000055
2036.824904,0.000013
2038.753716,0.000006
2040.682527,0.000050
2042.611339,0.000101
2044.540150,0.000144
2046.468962,0.000142
2048.397773,0.000098
2050.326585,0.000070
2052.255396,0.000098
2054.184207,0.000149
2056.113019,0.000133
2058.041830,0.000065
2059.970642,0.000042
2061.899453,0.000039
2063.828265,-0.000008
2065.757076,-0.000045
2067.685888,-0.000034
2069.614699,-0.000018
2071.543511,-0.000012
2073.472322,-0.000025
2075.401134,-0.000038
2077.329945,-0.000037
2079.258756,-0.000067
2081.187568,-0.000068
2083.116379,-0.000036
2085.045191,-0.000023
2086.974002,0.000005
2088.902814,-0.000011
2090.831625,-0.000035
2092.760437,0.000002
2094.689248,0.000007
2096.618060,0.000019
2098.546871,0.000022
2100.475683,-0.000036
2102.404494,-0.000037
2104.333305,-0.000016
2106.262117,-0.000025
2108.190928,-0.000012
2110.119740,0.000013
2112.048551,0.000026
2113.977363,0.000015
2115.906174,0.000020
2117.834986,0.000054
2119.763797,0.000047
2121.692609,0.000034
2123.621420,0.000061
2125.550232,0.000047
2127.479043,-0.000012
2129.407854,-0.000040
2131.336666,-0.000056
2133.265477,-0.000048
2135.194289,-0.000005
2137.123100,-0.000004
2139.051912,-0.000032
2140.980723,-0.000093
2142.909535,-0.000189
2144.838346,-0.000179
2146.767158,-0.000068
2148.695969,-0.000014
2150.624781,-0.000019
2152.553592,-0.000033
2154.482404,-0.000041
2156.411215,0.000024
2158.340026,0.000129
2160.268838,0.000147
2162.197649,0.000084
2164.126461,0.000057
2166.055272,0.000086
2167.984084,0.000117
2169.912895,0.000143
2171.841707,0.000138
2173.770518,0.000121
2175.699330,0.000155
2177.628141,0.000171
2179.556953,0.000139
2181.485764,0.000166
2183.414575,0.000250
2185.343387,0.000325
2187.272198,0.000379
2189.201010,0.000394
2191.129821,0.000423
2193.058633,0.000490
2194.987444,0.000513
2196.916256,0.000563
2198.845067,0.000687
2200.773879,0.000735
2202.702690,0.000717
2204.631502,0.000751
2206.560313,0.000795
2208.489124,0.000854
2210.417936,0.000941
2212.346747,0.000904
2214.275559,0.000791
2216.204370,0.000717
2218.133182,0.000604
2220.061993,0.000490
2221.990805,0.000383
2223.919616,0.000329
2225.848428,0.000476
2227.777239,0.000694
2229.706051,0.000850
2231.634862,0.001014
2233.563673,0.001217
2235.492485,0.001324
2237.421296,0.001275
2239.350108,0.001234
2241.278919,0.001180
2243.207731,0.001027
2245.136542,0.000890
2247.065354,0.000757
2248.994165,0.000588
2250.922977,0.000438
2252.851788,0.000263
2254.780600,0.000124
2256.709411,0.000119
2258.638222,0.000159
2260.567034,0.000180
2262.495845,0.000164
2264.424657,0.000159
2266.353468,0.000208
2268.282280,0.000240
2270.211091,0.000262
2272.139903,0.000257
2274.068714,0.000233
2275.997526,0.000294
2277.926337,0.000382
2279.855149,0.000406
2281.783960,0.000400
2283.712771,0.000376
2285.641583,0.000338
2287.570394,0.000343
2289.499206,0.000356
2291.428017,0.000301
2293.356829,0.000253
2295.285640,0.000253
2297.214452,0.000252
2299.143263,0.000236
2301.072075,0.000214
2303.000886,0.000159
2304.929698,0.000053
2306.858509,-0.000006
2308.787320,0.000022
2310.716132,0.000172
2312.644943,0.000207
2314.573755,0.000233
2316.502566,0.000226
2318.431378,0.000096
2320.360189,0.000012
2322.289001,0.000083
2324.217812,0.000154
2326.146624,0.000156
2328.075435,0.000154
2330.004247,0.000075
2331.933058,0.000072
2333.861870,0.000160
2335.790681,0.000191
2337.719492,0.000228
2339.648304,0.000346
2341.577115,0.000442
2343.505927,0.000648
2345.434738,0.001070
2347.363550,0.001601
2349.292361,0.001826
2351.221173,0.001354
2353.149984,0.000683
2355.078796,0.000410
2357.007607,0.000268
2358.936419,0.000171
2360.865230,0.000260
2362.794041,0.000040
2364.722853,-0.000129
2366.651664,-0.000238
2368.580476,-0.000214
2370.509287,-0.000040
2372.438099,0.000066
2374.366910,0.000087
2376.295722,0.000140
2378.224533,0.000159
2380.153345,0.000116
2382.082156,-0.000041
2384.010968,-0.000014
2385.939779,0.000042
2387.868590,0.000086
2389.797402,0.000053
2391.726213,0.000022
2393.655025,-0.000013
2395.583836,-0.000042
2397.512648,-0.000023
2399.441459,0.000005
2401.370271,0.000048
2403.299082,0.000072
2405.227894,0.000061
2407.156705,0.000096
2409.085517,0.000098
2411.014328,0.000028
2412.943139,0.000016
2414.871951,0.000029
2416.800762,0.000037
2418.729574,0.000067
2420.658385,0.000043
2422.587197,-0.000014
2424.516008,-0.000012
2426.444820,0.000033
2428.373631,0.000070
2430.302443,0.000064
2432.231254,0.000030
2434.160066,0.000049
2436.088877,0.000098
2438.017688,0.000122
2439.946500,0.000137
2441.875311,0.000120
2443.804123,0.000072
2445.732934,0.000044
2447.661746,0.000074
2449.590557,0.000114
2451.519369,0.000120
2453.448180,0.000144
2455.376992,0.000124
2457.305803,0.000099
2459.234615,0.000182
2461.163426,0.000245
2463.092237,0.000249
2465.021049,0.000238
2466.949860,0.000213
2468.878672,0.000239
2470.807483,0.000335
2472.736295,0.000443
2474.665106,0.000463
2476.593918,0.000412
2478.522729,0.000378
2480.451541,0.000397
2482.380352,0.000462
2484.309164,0.000446
2486.237975,0.000365
2488.166786,0.000343
2490.095598,0.000398
2492.024409,0.000517
2493.953221,0.000498
2495.882032,0.000342
2497.810844,0.000334
2499.739655,0.000397
2501.668467,0.000412
2503.597278,0.000497
2505.526090,0.000613
2507.454901,0.000628
2509.383713,0.000532
2511.312524,0.000453
2513.241336,0.000478
2515.170147,0.000474
2517.098958,0.000374
2519.027770,0.000302
2520.956581,0.000278
2522.885393,0.000237
2524.814204,0.000221
2526.743016,0.000263
2528.671827,0.000267
2530.600639,0.000201
2532.529450,0.000119
2534.458262,0.000080
2536.387073,0.000094
2538.315885,0.000081
2540.244696,0.000076
2542.173507,0.000116
2544.102319,0.000080
2546.031130,0.000019
2547.959942,0.000022
2549.888753,0.000027
2551.817565,0.000041
2553.746376,0.000064
2555.675188,0.000100
2557.603999,0.000163
2559.532811,0.000162
2561.461622,0.000100
2563.390434,0.000062
2565.319245,0.000060
2567.248056,0.000081
2569.176868,0.000103
2571.105679,0.000139
2573.034491,0.000196
2574.963302,0.000251
2576.892114,0.000266
2578.820925,0.000239
2580.749737,0.000252
2582.678548,0.000252
2584.607360,0.000185
2586.536171,0.000154
2588.464983,0.000163
2590.393794,0.000179
2592.322605,0.000195
2594.251417,0.000188
2596.180228,0.000159
2598.109040,0.000116
2600.037851,0.000109
2601.966663,0.000145
2603.895474,0.000193
2605.824286,0.000220
2607.753097,0.000200
2609.681909,0.000198
2611.610720,0.000211
2613.539532,0.000230
2615.468343,0.000330
2617.397154,0.000442
2619.325966,0.000495
2621.254777,0.000526
2623.183589,0.000582
2625.112400,0.000634
2627.041212,0.000632
2628.970023,0.000672
2630.898835,0.000728
2632.827646,0.000641
2634.756458,0.000571
2636.685269,0.000669
2638.614081,0.000729
2640.542892,0.000635
2642.471703,0.000480
2644.400515,0.000338
2646.329326,0.000234
2648.258138,0.000179
2650.186949,0.000152
2652.115761,0.000098
2654.044572,0.000072
2655.973384,0.000144
2657.902195,0.000161
2659.831007,0.000068
2661.759818,0.000053
2663.688630,0.000136
2665.617441,0.000182
2667.546253,0.000166
2669.475064,0.000131
2671.403875,0.000118
2673.332687,0.000091
2675.261498,0.000047
2677.190310,0.000072
2679.119121,0.000038
2681.047933,-0.000038
2682.976744,0.000047
2684.905556,0.000135
2686.834367,0.000115
2688.763179,0.000084
2690.691990,0.000044
2692.620802,0.000051
2694.549613,0.000118
2696.478424,0.000090
2698.407236,-0.000020
2700.336047,-0.000016
2702.264859,0.000067
2704.193670,0.000093
2706.122482,0.000054
2708.051293,-0.000007
2709.980105,-0.000022
2711.908916,-0.000010
2713.837728,0.000043
2715.766539,0.000140
2717.695351,0.000140
2719.624162,0.000057
2721.552973,0.000015
2723.481785,0.000015
2725.410596,0.000009
2727.339408,0.000021
2729.268219,0.000058
2731.197031,0.000054
2733.125842,0.000053
2735.054654,0.000073
2736.983465,0.000072
2738.912277,0.000116
2740.841088,0.000142
2742.769900,0.000110
2744.698711,0.000123
2746.627522,0.000114
2748.556334,0.000041
2750.485145,-0.000007
2752.413957,-0.000017
2754.342768,0.000023
2756.271580,0.000050
2758.200391,0.000013
2760.129203,0.000017
2762.058014,0.000073
2763.986826,0.000134
2765.915637,0.000169
2767.844449,0.000129
2769.773260,0.000088
2771.702071,0.000100
2773.630883,0.000052
2775.559694,-0.000041
2777.488506,-0.000022
2779.417317,0.000047
2781.346129,0.000082
2783.274940,0.000108
2785.203752,0.000058
2787.132563,-0.000001
2789.061375,0.000049
2790.990186,0.000127
2792.918998,0.000106
2794.847809,0.000021
2796.776620,0.000014
2798.705432,0.000009
2800.634243,-0.000048
2802.563055,-0.000018
2804.491866,0.000037
2806.420678,0.000024
2808.349489,0.000021
2810.278301,0.000046
2812.207112,0.000076
2814.135924,0.000086
2816.064735,0.000053
2817.993547,0.000074
2819.922358,0.000135
2821.851169,0.000095
2823.779981,0.000074
2825.708792,0.000125
2827.637604,0.000109
2829.566415,0.000123
2831.495227,0.000217
2833.424038,0.000312
2835.352850,0.000424
2837.281661,0.000514
2839.210473,0.000508
2841.139284,0.000529
2843.068096,0.000664
2844.996907,0.000794
2846.925719,0.000976
2848.854530,0.001224
2850.783341,0.001453
2852.712153,0.001809
2854.640964,0.002182
2856.569776,0.002595
2858.498587,0.003265
2860.427399,0.003965
2862.356210,0.004749
2864.285022,0.005892
2866.213833,0.007278
2868.142645,0.008678
2870.071456,0.010095
2872.000268,0.011816
2873.929079,0.013858
2875.857890,0.015960
2877.786702,0.018080
2879.715513,0.020223
2881.644325,0.022281
2883.573136,0.024222
2885.501948,0.025881
2887.430759,0.027004
2889.359571,0.027675
2891.288382,0.027969
2893.217194,0.027694
2895.146005,0.026673
2897.074817,0.025019
2899.003628,0.022934
2900.932439,0.020683
2902.861251,0.018084
2904.790062,0.014415
2906.718874,0.012826
2908.647685,0.017836
2910.576497,0.026787
2912.505308,0.034667
2914.434120,0.040456
2916.362931,0.043844
2918.291743,0.044524
2920.220554,0.042561
2922.149366,0.038302
2924.078177,0.032493
2926.006988,0.025617
2927.935800,0.018564
2929.864611,0.012204
2931.793423,0.007014
2933.722234,0.003393
2935.651046,0.001283
2937.579857,0.000254
2939.508669,-0.000112
2941.437480,-0.000057
2943.366292,0.000117
2945.295103,0.000167
2947.223915,0.000169
2949.152726,0.000199
2951.081537,0.000272
2953.010349,0.000364
2954.939160,0.000452
2956.867972,0.000555
2958.796783,0.000668
2960.725595,0.000812
2962.654406,0.000898
2964.583218,0.000862
2966.512029,0.000836
2968.440841,0.000815
2970.369652,0.000755
2972.298464,0.000781
2974.227275,0.000884
2976.156086,0.000893
2978.084898,0.000818
2980.013709,0.000819
2981.942521,0.000801
2983.871332,0.000589
2985.800144,0.000366
2987.728955,0.000259
2989.657767,0.000146
2991.586578,0.000040
2993.515390,0.000009
2995.444201,0.000005
2997.373013,-0.000024
2999.301824,-0.000039
3001.230635,-0.000043
3003.159447,-0.000132
3005.088258,-0.000193
3007.017070,-0.000093
3008.945881,-0.000031
3010.874693,-0.000114
3012.803504,-0.000197
3014.732316,-0.000205
3016.661127,-0.000211
3018.589939,-0.000288
3020.518750,-0.000306
3022.447562,-0.000237
3024.376373,-0.000203
3026.305185,-0.000167
3028.233996,-0.000165
3030.162807,-0.000198
3032.091619,-0.000172
3034.020430,-0.000192
3035.949242,-0.000183
3037.878053,-0.000061
3039.806865,-0.000032
3041.735676,-0.000052
3043.664488,0.000017
3045.593299,0.000014
3047.522111,-0.000127
3049.450922,-0.000195
3051.379734,-0.000074
3053.308545,0.000057
3055.237356,0.000071
3057.166168,0.000058
3059.094979,0.000045
3061.023791,-0.000012
3062.952602,-0.000084
3064.881414,-0.000088
3066.810225,-0.000019
3068.739037,-0.000004
3070.667848,-0.000008
3072.596660,0.000049
3074.525471,0.000094
3076.454283,0.000119
3078.383094,0.000073
3080.311905,-0.000004
3082.240717,0.000034
3084.169528,0.000106
3086.098340,0.000119
3088.027151,0.000085
3089.955963,0.000078
3091.884774,0.000174
3093.813586,0.000278
3095.742397,0.000288
3097.671209,0.000286
3099.600020,0.000378
3101.528832,0.000555
3103.457643,0.000746
3105.386454,0.000809
3107.315266,0.000719
3109.244077,0.000712
3111.172889,0.000771
3113.101700,0.000723
3115.030512,0.000724
3116.959323,0.000771
3118.888135,0.000729
3120.816946,0.000720
3122.745758,0.000754
3124.674569,0.000750
3126.603381,0.000693
3128.532192,0.000566
3130.461003,0.000419
3132.389815,0.000348
3134.318626,0.000384
3136.247438,0.000397
3138.176249,0.000355
3140.105061,0.000321
3142.033872,0.000191
3143.962684,0.000112
3145.891495,0.000224
3147.820307,0.000335
3149.749118,0.000396
3151.677930,0.000385
3153.606741,0.000226
3155.535552,0.000163
3157.464364,0.000250
3159.393175,0.000193
3161.321987,0.000097
3163.250798,0.000205
3165.179610,0.000387
3167.108421,0.000482
3169.037233,0.000456
3170.966044,0.000360
3172.894856,0.000258
3174.823667,0.000196
3176.752479,0.000178
3178.681290,0.000167
3180.610102,0.000223
3182.538913,0.000275
3184.467724,0.000190
3186.396536,0.000155
3188.325347,0.000290
3190.254159,0.000402
3192.182970,0.000381
3194.111782,0.000315
3196.040593,0.000214
3197.969405,0.000084
3199.898216,0.000052
3201.827028,0.000102
3203.755839,0.000155
3205.684651,0.000239
3207.613462,0.000306
3209.542273,0.000336
3211.471085,0.000361
3213.399896,0.000345
3215.328708,0.000343
3217.257519,0.000357
3219.186331,0.000282
3221.115142,0.000222
3223.043954,0.000218
3224.972765,0.000204
3226.901577,0.000257
3228.830388,0.000262
3230.759200,0.000244
3232.688011,0.000390
3234.616822,0.000437
3236.545634,0.000303
3238.474445,0.000338
3240.403257,0.000555
3242.332068,0.000642
3244.260880,0.000534
3246.189691,0.000428
3248.118503,0.000424
3250.047314,0.000420
3251.976126,0.000321
3253.904937,0.000338
3255.833749,0.000491
3257.762560,0.000438
3259.691371,0.000355
3261.620183,0.000479
3263.548994,0.000547
3265.477806,0.000448
3267.406617,0.000365
3269.335429,0.000434
3271.264240,0.000442
3273.193052,0.000236
3275.121863,0.000107
3277.050675,0.000184
3278.979486,0.000295
3280.908298,0.000393
3282.837109,0.000515
3284.765920,0.000492
3286.694732,0.000300
3288.623543,0.000171
3290.552355,0.000074
3292.481166,-0.000054
3294.409978,-0.000050
3296.338789,0.000023
3298.267601,-0.000027
3300.196412,-0.000224
3302.125224,-0.000394
3304.054035,-0.000364
3305.982847,-0.000278
3307.911658,-0.000252
3309.840469,-0.000238
3311.769281,-0.000264
3313.698092,-0.000301
3315.626904,-0.000324
3317.555715,-0.000327
3319.484527,-0.000295
3321.413338,-0.000340
3323.342150,-0.000390
3325.270961,-0.000310
3327.199773,-0.000246
3329.128584,-0.000319
3331.057396,-0.000447
3332.986207,-0.000447
3334.915018,-0.000309
3336.843830,-0.000254
3338.772641,-0.000322
3340.701453,-0.000354
3342.630264,-0.000305
3344.559076,-0.000278
3346.487887,-0.000256
3348.416699,-0.000132
3350.345510,-0.000016
3352.274322,0.000072
3354.203133,0.000205
3356.131945,0.000207
3358.060756,0.000146
3359.989568,0.000227
3361.918379,0.000183
3363.847190,0.000009
3365.776002,-0.000020
3367.704813,-0.000023
3369.633625,0.000062
3371.562436,0.000163
3373.491248,-0.000047
3375.420059,-0.000250
3377.348871,-0.000205
3379.277682,-0.000042
3381.206494,0.000155
3383.135305,0.000293
3385.064117,0.000389
3386.992928,0.000394
3388.921739,0.000336
3390.850551,0.000183
3392.779362,0.000063
3394.708174,0.000168
3396.636985,0.000222
3398.565797,0.000205
3400.494608,0.000272
3402.423420,0.000245
3404.352231,0.000263
3406.281043,0.000315
3408.209854,0.000269
3410.138666,0.000222
3412.067477,0.000239
3413.996288,0.000266
3415.925100,0.000219
3417.853911,0.000236
3419.782723,0.000211
3421.711534,0.000099
3423.640346,0.000137
3425.569157,0.000166
3427.497969,0.000092
3429.426780,0.000042
3431.355592,0.000087
3433.284403,0.000257
3435.213215,0.000473
3437.142026,0.000577
3439.070837,0.000492
3440.999649,0.000483
3442.928460,0.000595
3444.857272,0.000584
3446.786083,0.000526
3448.714895,0.000488
3450.643706,0.000439
3452.572518,0.000314
3454.501329,0.000144
3456.430141,0.000062
3458.358952,0.000007
3460.287764,0.000116
3462.216575,0.000396
3464.145386,0.000423
3466.074198,0.000261
3468.003009,0.000221
3469.931821,0.000131
3471.860632,-0.000106
3473.789444,-0.000262
3475.718255,-0.000257
3477.647067,-0.000158
3479.575878,-0.000099
3481.504690,-0.000162
3483.433501,-0.000148
3485.362313,-0.000023
3487.291124,0.000001
3489.219935,-0.000031
3491.148747,-0.000011
3493.077558,-0.000015
3495.006370,-0.000067
3496.935181,-0.000145
3498.863993,-0.000264
3500.792804,-0.000379
3502.721616,-0.000451
3504.650427,-0.000430
3506.579239,-0.000320
3508.508050,-0.000285
3510.436862,-0.000330
3512.365673,-0.000376
3514.294484,-0.000305
3516.223296,-0.000036
3518.152107,-0.000005
3520.080919,-0.000176
3522.009730,-0.000046
3523.938542,-0.000075
3525.867353,-0.000329
3527.796165,-0.000135
3529.724976,0.000254
3531.653788,0.000375
3533.582599,0.000301
3535.511411,0.000338
3537.440222,0.000641
3539.369034,0.000757
3541.297845,0.000781
3543.226656,0.000973
3545.155468,0.001003
3547.084279,0.001106
3549.013091,0.001375
3550.941902,0.001451
3552.870714,0.001583
3554.799525,0.002042
3556.728337,0.002459
3558.657148,0.002830
3560.585960,0.003560
3562.514771,0.004233
3564.443583,0.004730
3566.372394,0.005321
3568.301205,0.005912
3570.230017,0.006729
3572.158828,0.007364
3574.087640,0.007518
3576.016451,0.007573
3577.945263,0.007505
3579.874074,0.006887
3581.802886,0.005628
3583.731697,0.004560
3585.660509,0.004128
3587.589320,0.005241
3589.518132,0.006952
3591.446943,0.005598
3593.375754,0.003242
3595.304566,0.003561
3597.233377,0.005141
3599.162189,0.006394
3601.091000,0.007272
3603.019812,0.007850
3604.948623,0.007939
3606.877435,0.007300
3608.806246,0.006543
3610.735058,0.005798
3612.663869,0.004966
3614.592681,0.004177
3616.521492,0.003291
3618.450303,0.002454
3620.379115,0.001921
3622.307926,0.001613
3624.236738,0.001290
3626.165549,0.000750
3628.094361,0.000083
3630.023172,-0.000081
3631.951984,0.000066
3633.880795,0.000176
3635.809607,0.000391
3637.738418,0.000485
3639.667230,0.000347
3641.596041,0.000235
3643.524852,0.000178
3645.453664,-0.000037
3647.382475,-0.000449
3649.311287,-0.000681
3651.240098,-0.000376
3653.168910,0.000077
3655.097721,0.000139
3657.026533,0.000060
3658.955344,0.000171
3660.884156,0.000290
3662.812967,0.000409
3664.741779,0.000503
3666.670590,0.000443
3668.599401,0.000125
3670.528213,-0.000124
3672.457024,-0.000165
3674.385836,-0.000469
3676.314647,-0.000654
3678.243459,-0.000265
3680.172270,0.000055
3682.101082,0.000270
3684.029893,0.000344
3685.958705,0.000048
3687.887516,-0.000443
3689.816328,-0.000668
3691.745139,-0.000471
3693.673951,-0.000131
3695.602762,0.000168
3697.531573,0.000302
3699.460385,0.000155
3701.389196,-0.000175
3703.318008,-0.000265
3705.246819,-0.000116
3707.175631,-0.000211
3709.104442,-0.000543
3711.033254,-0.000770
3712.962065,-0.000602
3714.890877,-0.000228
3716.819688,-0.000055
3718.748500,-0.000053
3720.677311,-0.000136
3722.606122,-0.000230
3724.534934,-0.000260
3726.463745,-0.000194
3728.392557,-0.000095
3730.321368,-0.000215
3732.250180,-0.000438
3734.178991,-0.000551
3736.107803,-0.000569
3738.036614,-0.000353
3739.965426,-0.000013
3741.894237,-0.000077
3743.823049,-0.000656
3745.751860,-0.000776
3747.680671,-0.000522
3749.609483,-0.000808
3751.538294,-0.000926
3753.467106,-0.000464
3755.395917,-0.000060
3757.324729,0.000047
3759.253540,-0.000028
3761.182352,0.000216
3763.111163,0.000448
3765.039975,0.000295
3766.968786,0.000174
3768.897598,-0.000014
3770.826409,-0.000060
3772.755220,0.000304
3774.684032,0.000528
3776.612843,0.000476
3778.541655,0.000266
3780.470466,0.000200
3782.399278,0.000382
3784.328089,0.000416
3786.256901,0.000430
3788.185712,0.000476
3790.114524,0.000411
3792.043335,0.000468
3793.972147,0.000488
3795.900958,0.000258
3797.829769,0.000108
3799.758581,-0.000042
3801.687392,-0.000274
3803.616204,-0.000095
3805.545015,0.000059
3807.473827,0.000047
3809.402638,0.000341
3811.331450,0.000586
3813.260261,0.000469
3815.189073,0.000122
3817.117884,-0.000009
3819.046696,0.000014
3820.975507,-0.000303
3822.904318,-0.000210
3824.833130,0.000212
3826.761941,0.000345
3828.690753,0.000463
3830.619564,0.000278
3832.548376,-0.000066
3834.477187,-0.000099
3836.405999,-0.000345
3838.334810,-0.000596
3840.263622,-0.000295
3842.192433,0.000048
3844.121245,0.000198
3846.050056,0.000263
3847.978867,0.000239
3849.907679,0.000065
3851.836490,-0.000492
3853.765302,-0.001022
3855.694113,-0.000612
3857.622925,0.000017
3859.551736,0.000217
3861.480548,0.000114
3863.409359,-0.000116
3865.338171,-0.000131
3867.266982,-0.000036
3869.195794,-0.000319
3871.124605,-0.000423
3873.053417,-0.000096
3874.982228,0.000071
3876.911039,0.000185
3878.839851,0.000141
3880.768662,-0.000076
3882.697474,-0.000015
3884.626285,-0.000052
3886.555097,-0.000161
3888.483908,0.000064
3890.412720,0.000100
3892.341531,-0.000069
3894.270343,0.000069
3896.199154,0.000165
3898.127966,-0.000112
3900.056777,-0.000427
3901.985588,-0.000525
3903.914400,-0.000377
3905.843211,-0.000074
3907.772023,0.000170
3909.700834,0.000327
3911.629646,0.000321
3913.558457,0.000172
3915.487269,0.000076
3917.416080,0.000019
3919.344892,0.000044
3921.273703,0.000137
3923.202515,0.000140
3925.131326,0.000112
3927.060137,0.000086
3928.988949,0.000033
3930.917760,-0.000051
3932.846572,-0.000134
3934.775383,-0.000069
3936.704195,0.000040
3938.633006,0.000052
3940.561818,0.000103
3942.490629,0.000104
3944.419441,0.000064
3946.348252,0.000159
3948.277064,0.000058
3950.205875,-0.000180
3952.134686,-0.000114
3954.063498,0.000008
3955.992309,0.000036
3957.921121,0.000093
3959.849932,0.000082
3961.778744,0.000024
3963.707555,0.000014
3965.636367,0.000061
3967.565178,0.000055
3969.493990,0.000029
3971.422801,0.000109
3973.351613,0.000173
3975.280424,0.000174
3977.209235,0.000203
3979.138047,0.000252
3981.066858,0.000189
3982.995670,0.000052
3984.924481,0.000094
3986.853293,0.000203
3988.782104,0.000166
3990.710916,0.000111
3992.639727,0.000111
3994.568539,0.000163
3996.497350,0.000297
3998.426162,0.000333
4000.354973,0.000187
