XLabel,Wavenumber
YLabel,Absorbance
FileType,Absorbance
DisplayDirection,20300
PeakDirection,20312
898.826141,0.002968
900.754953,0.001696
902.683764,0.000694
904.612576,0.000655
906.541387,0.000410
908.470199,-0.000725
910.399010,-0.000286
912.327822,0.001023
914.256633,0.000900
916.185445,0.000325
918.114256,0.000385
920.043068,0.000408
921.971879,-0.000032
923.900690,-0.000168
925.829502,0.000070
927.758313,0.000859
929.687125,0.001235
931.615936,0.000262
933.544748,-0.000450
935.473559,0.000499
937.402371,0.000971
939.331182,0.000369
941.259994,-0.000105
943.188805,-0.000248
945.117617,-0.000289
947.046428,-0.000289
948.975240,-0.000435
950.904051,-0.000717
952.832862,-0.000592
954.761674,-0.000091
956.690485,0.000063
958.619297,-0.000056
960.548108,-0.000069
962.476920,-0.000007
964.405731,-0.000046
966.334543,-0.000113
968.263354,0.000191
970.192166,0.000386
972.120977,-0.000012
974.049789,-0.000240
975.978600,-0.000189
977.907411,-0.000269
979.836223,-0.000289
981.765034,-0.000091
983.693846,0.000164
985.622657,0.000165
987.551469,0.000024
989.480280,-0.000019
991.409092,-0.000130
993.337903,-0.000167
995.266715,-0.000108
997.195526,-0.000031
999.124338,-0.000013
1001.053149,-0.000086
1002.981960,-0.000049
1004.910772,0.000067
1006.839583,0.000018
1008.768395,-0.000034
1010.697206,0.000015
1012.626018,-0.000078
1014.554829,-0.000164
1016.483641,-0.000061
1018.412452,0.000032
1020.341264,0.000118
1022.270075,0.000240
1024.198887,0.000281
1026.127698,0.000303
1028.056509,0.000459
1029.985321,0.000607
1031.914132,0.000609
1033.842944,0.000694
1035.771755,0.000846
1037.700567,0.000985
1039.629378,0.001210
1041.558190,0.001222
1043.487001,0.000890
1045.415813,0.000625
1047.344624,0.000502
1049.273436,0.000305
1051.202247,0.000142
1053.131058,0.000100
1055.059870,0.000052
1056.988681,0.000008
1058.917493,0.000033
1060.846304,0.000012
1062.775116,-0.000034
1064.703927,-0.000134
1066.632739,-0.000214
1068.561550,-0.000138
1070.490362,-0.000029
1072.419173,0.000050
1074.347985,0.000121
1076.276796,0.000146
1078.205607,0.000227
1080.134419,0.000362
1082.063230,0.000439
1083.992042,0.000449
1085.920853,0.000439
1087.849665,0.000457
1089.778476,0.000393
1091.707288,0.000295
1093.636099,0.000329
1095.564911,0.000373
1097.493722,0.000398
1099.422534,0.000444
1101.351345,0.000404
1103.280156,0.000387
1105.208968,0.000469
1107.137779,0.000447
1109.066591,0.000335
1110.995402,0.000349
1112.924214,0.000466
1114.853025,0.000484
1116.781837,0.000450
1118.710648,0.000526
1120.639460,0.000531
1122.568271,0.000479
1124.497083,0.000603
1126.425894,0.000703
1128.354706,0.000689
1130.283517,0.000668
1132.212328,0.000573
1134.141140,0.000518
1136.069951,0.000531
1137.998763,0.000488
1139.927574,0.000398
1141.856386,0.000341
1143.785197,0.000297
1145.714009,0.000285
1147.642820,0.000293
1149.571632,0.000230
1151.500443,0.000071
1153.429255,0.000090
1155.358066,0.000169
1157.286877,0.000113
1159.215689,0.000109
1161.144500,0.000026
1163.073312,-0.000100
1165.002123,-0.000066
1166.930935,0.000018
1168.859746,0.000056
1170.788558,-0.000014
1172.717369,-0.000122
1174.646181,-0.000211
1176.574992,-0.000283
1178.503804,-0.000246
1180.432615,-0.000122
1182.361426,-0.000036
1184.290238,-0.000000
1186.219049,0.000075
1188.147861,0.000142
1190.076672,0.000172
1192.005484,0.000221
1193.934295,0.000214
1195.863107,0.000148
1197.791918,-0.000003
1199.720730,-0.000258
1201.649541,-0.000369
1203.578353,-0.000235
1205.507164,-0.000125
1207.435975,0.000046
1209.364787,0.000258
1211.293598,0.000533
1213.222410,0.000847
1215.151221,0.001239
1217.080033,0.001766
1219.008844,0.002219
1220.937656,0.002887
1222.866467,0.003642
1224.795279,0.004208
1226.724090,0.005319
1228.652902,0.006767
1230.581713,0.008370
1232.510524,0.010759
1234.439336,0.013360
1236.368147,0.016425
1238.296959,0.021011
1240.225770,0.026701
1242.154582,0.034228
1244.083393,0.044736
1246.012205,0.057458
1247.941016,0.071837
1249.869828,0.086250
1251.798639,0.097243
1253.727451,0.101025
1255.656262,0.097771
1257.585073,0.095893
1259.513885,0.102380
1261.442696,0.112587
1263.371508,0.112506
1265.300319,0.101415
1267.229131,0.098162
1269.157942,0.106032
1271.086754,0.108997
1273.015565,0.099972
1274.944377,0.083188
1276.873188,0.065403
1278.802000,0.051801
1280.730811,0.042937
1282.659622,0.036722
1284.588434,0.031937
1286.517245,0.028623
1288.446057,0.025763
1290.374868,0.023370
1292.303680,0.021770
1294.232491,0.020101
1296.161303,0.018942
1298.090114,0.018462
1300.018926,0.018247
1301.947737,0.018220
1303.876549,0.017975
1305.805360,0.017890
1307.734172,0.018261
1309.662983,0.018632
1311.591794,0.018557
1313.520606,0.018146
1315.449417,0.017269
1317.378229,0.015819
1319.307040,0.014321
1321.235852,0.013088
1323.164663,0.013489
1325.093475,0.014255
1327.022286,0.012073
1328.951098,0.009737
1330.879909,0.009607
1332.808721,0.009381
1334.737532,0.009042
1336.666343,0.008983
1338.595155,0.008521
1340.523966,0.008121
1342.452778,0.007611
1344.381589,0.006642
1346.310401,0.005537
1348.239212,0.004347
1350.168024,0.003280
1352.096835,0.002451
1354.025647,0.001659
1355.954458,0.001199
1357.883270,0.000979
1359.812081,0.000353
1361.740892,-0.000282
1363.669704,-0.000087
1365.598515,0.000290
1367.527327,0.000212
1369.456138,0.000385
1371.384950,0.000489
1373.313761,0.000018
1375.242573,-0.000110
1377.171384,0.000441
1379.100196,0.000879
1381.029007,0.001019
1382.957819,0.001159
1384.886630,0.001003
1386.815441,0.000672
1388.744253,0.001198
1390.673064,0.001853
1392.601876,0.001405
1394.530687,0.000920
1396.459499,0.001170
1398.388310,0.001265
1400.317122,0.001663
1402.245933,0.002213
1404.174745,0.002109
1406.103556,0.002294
1408.032368,0.002699
1409.961179,0.002672
1411.889990,0.002727
1413.818802,0.002934
1415.747613,0.002632
1417.676425,0.001577
1419.605236,0.001619
1421.534048,0.002923
1423.462859,0.003453
1425.391671,0.003838
1427.320482,0.004175
1429.249294,0.003911
1431.178105,0.004200
1433.106917,0.004500
1435.035728,0.003359
1436.964539,0.002921
1438.893351,0.004565
1440.822162,0.005512
1442.750974,0.005543
1444.679785,0.005381
1446.608597,0.005057
1448.537408,0.005255
1450.466220,0.005624
1452.395031,0.005532
1454.323843,0.004284
1456.252654,0.001994
1458.181466,0.002588
1460.110277,0.005305
1462.039089,0.006006
1463.967900,0.005179
1465.896711,0.005383
1467.825523,0.006288
1469.754334,0.005498
1471.683146,0.003596
1473.611957,0.003450
1475.540769,0.004696
1477.469580,0.005762
1479.398392,0.006200
1481.327203,0.006252
1483.256015,0.006327
1485.184826,0.005862
1487.113638,0.004792
1489.042449,0.003970
1490.971260,0.004542
1492.900072,0.005533
1494.828883,0.004884
1496.757695,0.003886
1498.686506,0.004337
1500.615318,0.005100
1502.544129,0.004954
1504.472941,0.002467
1506.401752,-0.000398
1508.330564,0.001296
1510.259375,0.003453
1512.188187,0.004039
1514.116998,0.003803
1516.045809,0.002875
1517.974621,0.002248
1519.903432,0.001289
1521.832244,0.000789
1523.761055,0.002169
1525.689867,0.002941
1527.618678,0.003487
1529.547490,0.004375
1531.476301,0.003714
1533.405113,0.002810
1535.333924,0.003749
1537.262736,0.003105
1539.191547,0.000149
1541.120358,0.000519
1543.049170,0.002806
1544.977981,0.004858
1546.906793,0.006595
1548.835604,0.007481
1550.764416,0.008408
1552.693227,0.009272
1554.622039,0.010380
1556.550850,0.010929
1558.479662,0.012043
1560.408473,0.020578
1562.337285,0.030321
1564.266096,0.039017
1566.194907,0.049805
1568.123719,0.062039
1570.052530,0.079810
1571.981342,0.102790
1573.910153,0.126030
1575.838965,0.158300
1577.767776,0.200446
1579.696588,0.243525
1581.625399,0.291704
1583.554211,0.343241
1585.483022,0.397737
1587.411834,0.457145
1589.340645,0.521328
1591.269456,0.588982
1593.198268,0.648197
1595.127079,0.688161
1597.055891,0.705967
1598.984702,0.709684
1600.913514,0.696926
1602.842325,0.674576
1604.771137,0.656863
1606.699948,0.635223
1608.628760,0.607594
1610.557571,0.560215
1612.486383,0.501763
1614.415194,0.438948
1616.344005,0.381863
1618.272817,0.435258
1620.201628,0.607217
1622.130440,0.788578
1624.059251,0.899812
1625.988063,0.966938
1627.916874,1.004680
1629.845686,0.991372
1631.774497,0.914187
1633.703309,0.804525
1635.632120,0.667637
1637.560932,0.550742
1639.489743,0.458030
1641.418555,0.357891
1643.347366,0.267275
1645.276177,0.192066
1647.204989,0.123408
1649.133800,0.078067
1651.062612,0.047911
1652.991423,0.020547
1654.920235,0.010012
1656.849046,0.008189
1658.777858,0.005063
1660.706669,0.002106
1662.635481,0.000364
1664.564292,0.000484
1666.493104,0.000672
1668.421915,-0.000521
1670.350726,0.000344
1672.279538,0.002572
1674.208349,0.004164
1676.137161,0.007200
1678.065972,0.011247
1679.994784,0.014099
1681.923595,0.015033
1683.852407,0.015416
1685.781218,0.018257
1687.710030,0.020417
1689.638841,0.019870
1691.567653,0.018912
1693.496464,0.015636
1695.425275,0.015360
1697.354087,0.026349
1699.282898,0.029087
1701.211710,0.017342
1703.140521,0.014584
1705.069333,0.019494
1706.998144,0.025044
1708.926956,0.031674
1710.855767,0.038230
1712.784579,0.041116
1714.713390,0.040421
1716.642202,0.039926
1718.571013,0.041611
1720.499824,0.044050
1722.428636,0.045353
1724.357447,0.046204
1726.286259,0.047609
1728.215070,0.049595
1730.143882,0.053026
1732.072693,0.056730
1734.001505,0.063712
1735.930316,0.074896
1737.859128,0.083281
1739.787939,0.089639
1741.716751,0.094656
1743.645562,0.096653
1745.574373,0.095617
1747.503185,0.092928
1749.431996,0.090453
1751.360808,0.090512
1753.289619,0.092411
1755.218431,0.092601
1757.147242,0.090559
1759.076054,0.085306
1761.004865,0.073777
1762.933677,0.058750
1764.862488,0.045982
1766.791300,0.033505
1768.720111,0.022245
1770.648922,0.013812
1772.577734,0.007615
1774.506545,0.005077
1776.435357,0.003714
1778.364168,0.002117
1780.292980,0.001076
1782.221791,0.000859
1784.150603,0.000938
1786.079414,0.001051
1788.008226,0.001349
1789.937037,0.000709
1791.865849,-0.000488
1793.794660,-0.000230
1795.723471,0.000524
1797.652283,0.000444
1799.581094,-0.000169
1801.509906,-0.000298
1803.438717,0.000381
1805.367529,0.001031
1807.296340,0.001117
1809.225152,0.000824
1811.153963,0.000810
1813.082775,0.001400
1815.011586,0.001946
1816.940398,0.002295
1818.869209,0.002762
1820.798021,0.003154
1822.726832,0.003121
1824.655643,0.003168
1826.584455,0.003801
1828.513266,0.004079
1830.442078,0.004302
1832.370889,0.005454
1834.299701,0.006489
1836.228512,0.007034
1838.157324,0.007674
1840.086135,0.008169
1842.014947,0.008048
1843.943758,0.007775
1845.872570,0.008234
1847.801381,0.008775
1849.730192,0.008892
1851.659004,0.008897
1853.587815,0.008730
1855.516627,0.008374
1857.445438,0.007859
1859.374250,0.007354
1861.303061,0.006635
1863.231873,0.005580
1865.160684,0.004170
1867.089496,0.002137
1869.018307,0.000545
1870.947119,-0.000210
1872.875930,0.001672
1874.804741,0.005672
1876.733553,0.004392
1878.662364,-0.000021
1880.591176,0.000157
1882.519987,0.002407
1884.448799,0.004257
1886.377610,0.006231
1888.306422,0.007730
1890.235233,0.009309
1892.164045,0.010893
1894.092856,0.012133
1896.021668,0.013122
1897.950479,0.013903
1899.879290,0.014482
1901.808102,0.014721
1903.736913,0.014852
1905.665725,0.014824
1907.594536,0.014540
1909.523348,0.014170
1911.452159,0.013700
1913.380971,0.013102
1915.309782,0.011990
1917.238594,0.010465
1919.167405,0.009691
1921.096217,0.009336
1923.025028,0.008471
1924.953839,0.007651
1926.882651,0.006926
1928.811462,0.006022
1930.740274,0.005157
1932.669085,0.004361
1934.597897,0.003645
1936.526708,0.002958
1938.455520,0.002348
1940.384331,0.001662
1942.313143,0.000988
1944.241954,0.000755
1946.170766,0.000682
1948.099577,0.000568
1950.028388,0.000465
1951.957200,0.000330
1953.886011,0.000238
1955.814823,0.000190
1957.743634,0.000193
1959.672446,0.000242
1961.601257,0.000285
1963.530069,0.000239
1965.458880,0.000139
1967.387692,0.000127
1969.316503,0.000247
1971.245315,0.000275
1973.174126,0.000265
1975.102938,0.000242
1977.031749,0.000188
1978.960560,0.000198
1980.889372,0.000187
1982.818183,0.000159
1984.746995,0.000157
1986.675806,0.000104
1988.604618,0.000050
1990.533429,-0.000057
1992.462241,-0.000064
1994.391052,0.000160
1996.319864,0.000249
1998.248675,0.000151
2000.177487,0.000114
2002.106298,0.000125
2004.035109,0.000098
2005.963921,0.000078
2007.892732,0.000103
2009.821544,0.000109
2011.750355,0.000107
2013.679167,0.000090
2015.607978,-0.000044
2017.536790,-0.000139
2019.465601,-0.000004
2021.394413,0.000123
2023.323224,0.000114
2025.252036,0.000127
2027.180847,0.000138
2029.109658,0.000120
2031.038470,0.000086
2032.967281,0.000053
2034.896093,0.000081
2036.824904,0.000077
2038.753716,-0.000005
2040.682527,-0.000041
2042.611339,-0.000001
2044.540150,0.000027
2046.468962,0.000036
2048.397773,0.000023
2050.326585,0.000002
2052.255396,0.000069
2054.184207,0.000129
2056.113019,0.000062
2058.041830,-0.000027
2059.970642,-0.000056
2061.899453,-0.000071
2063.828265,-0.000152
2065.757076,-0.000201
2067.685888,-0.000138
2069.614699,-0.000107
2071.543511,-0.000119
2073.472322,-0.000112
2075.401134,-0.000128
2077.329945,-0.000160
2079.258756,-0.000179
2081.187568,-0.000167
2083.116379,-0.000145
2085.045191,-0.000156
2086.974002,-0.000188
2088.902814,-0.000188
2090.831625,-0.000141
2092.760437,-0.000129
2094.689248,-0.000166
2096.618060,-0.000161
2098.546871,-0.000161
2100.475683,-0.000185
2102.404494,-0.000137
2104.333305,-0.000106
2106.262117,-0.000149
2108.190928,-0.000143
2110.119740,-0.000077
2112.048551,-0.000071
2113.977363,-0.000140
2115.906174,-0.000141
2117.834986,-0.000079
2119.763797,-0.000083
2121.692609,-0.000085
2123.621420,-0.000048
2125.550232,-0.000085
2127.479043,-0.000171
2129.407854,-0.000158
2131.336666,-0.000101
2133.265477,-0.000117
2135.194289,-0.000151
2137.123100,-0.000176
2139.051912,-0.000213
2140.980723,-0.000277
2142.909535,-0.000379
2144.838346,-0.000400
2146.767158,-0.000303
2148.695969,-0.000203
2150.624781,-0.000139
2152.553592,-0.000096
2154.482404,-0.000062
2156.411215,-0.000038
2158.340026,-0.000036
2160.268838,-0.000033
2162.197649,-0.000001
2164.126461,0.000028
2166.055272,0.000033
2167.984084,0.000019
2169.912895,0.000042
2171.841707,0.000126
2173.770518,0.000166
2175.699330,0.000205
2177.628141,0.000274
2179.556953,0.000242
2181.485764,0.000217
2183.414575,0.000282
2185.343387,0.000365
2187.272198,0.000456
2189.201010,0.000511
2191.129821,0.000602
2193.058633,0.000775
2194.987444,0.000885
2196.916256,0.000931
2198.845067,0.001015
2200.773879,0.001166
2202.702690,0.001327
2204.631502,0.001445
2206.560313,0.001527
2208.489124,0.001547
2210.417936,0.001521
2212.346747,0.001476
2214.275559,0.001397
2216.204370,0.001291
2218.133182,0.001118
2220.061993,0.000839
2221.990805,0.000586
2223.919616,0.000587
2225.848428,0.000864
2227.777239,0.001235
2229.706051,0.001586
2231.634862,0.001880
2233.563673,0.002106
2235.492485,0.002237
2237.421296,0.002233
2239.350108,0.002140
2241.278919,0.001994
2243.207731,0.001769
2245.136542,0.001501
2247.065354,0.001264
2248.994165,0.001033
2250.922977,0.000768
2252.851788,0.000547
2254.780600,0.000377
2256.709411,0.000266
2258.638222,0.000292
2260.567034,0.000289
2262.495845,0.000205
2264.424657,0.000256
2266.353468,0.000388
2268.282280,0.000440
2270.211091,0.000422
2272.139903,0.000403
2274.068714,0.000455
2275.997526,0.000519
2277.926337,0.000579
2279.855149,0.000662
2281.783960,0.000672
2283.712771,0.000624
2285.641583,0.000585
2287.570394,0.000530
2289.499206,0.000481
2291.428017,0.000450
2293.356829,0.000413
2295.285640,0.000387
2297.214452,0.000384
2299.143263,0.000401
2301.072075,0.000384
2303.000886,0.000290
2304.929698,0.000194
2306.858509,0.000145
2308.787320,0.000317
2310.716132,0.000440
2312.644943,0.000446
2314.573755,0.000457
2316.502566,0.000435
2318.431378,0.000311
2320.360189,0.000217
2322.289001,0.000166
2324.217812,0.000102
2326.146624,0.000042
2328.075435,-0.000032
2330.004247,-0.000037
2331.933058,0.000049
2333.861870,0.000171
2335.790681,0.000229
2337.719492,0.000282
2339.648304,0.000357
2341.577115,0.000524
2343.505927,0.000921
2345.434738,0.001494
2347.363550,0.002143
2349.292361,0.002402
2351.221173,0.001855
2353.149984,0.001051
2355.078796,0.000673
2357.007607,0.000552
2358.936419,0.000490
2360.865230,0.000092
2362.794041,-0.000188
2364.722853,-0.000432
2366.651664,-0.000550
2368.580476,-0.000514
2370.509287,-0.000371
2372.438099,-0.000201
2374.366910,-0.000093
2376.295722,-0.000059
2378.224533,-0.000121
2380.153345,-0.000231
2382.082156,-0.000020
2384.010968,0.000027
2385.939779,0.000003
2387.868590,0.000042
2389.797402,0.000130
2391.726213,0.000144
2393.655025,0.000017
2395.583836,-0.000066
2397.512648,-0.000020
2399.441459,0.000019
2401.370271,0.000030
2403.299082,0.000019
2405.227894,-0.000046
2407.156705,-0.000080
2409.085517,-0.000087
2411.014328,-0.000138
2412.943139,-0.000141
2414.871951,-0.000060
2416.800762,-0.000008
2418.729574,-0.000014
2420.658385,-0.000040
2422.587197,-0.000098
2424.516008,-0.000142
2426.444820,-0.000119
2428.373631,-0.000116
2430.302443,-0.000155
2432.231254,-0.000165
2434.160066,-0.000151
2436.088877,-0.000122
2438.017688,-0.000064
2439.946500,-0.000023
2441.875311,-0.000060
2443.804123,-0.000096
2445.732934,-0.000059
2447.661746,-0.000049
2449.590557,-0.000067
2451.519369,-0.000029
2453.448180,0.000003
2455.376992,-0.000024
2457.305803,-0.000003
2459.234615,0.000049
2461.163426,0.000046
2463.092237,0.000076
2465.021049,0.000131
2466.949860,0.000156
2468.878672,0.000203
2470.807483,0.000304
2472.736295,0.000406
2474.665106,0.000387
2476.593918,0.000330
2478.522729,0.000315
2480.451541,0.000294
2482.380352,0.000303
2484.309164,0.000277
2486.237975,0.000234
2488.166786,0.000218
2490.095598,0.000263
2492.024409,0.000465
2493.953221,0.000530
2495.882032,0.000382
2497.810844,0.000351
2499.739655,0.000371
2501.668467,0.000392
2503.597278,0.000521
2505.526090,0.000621
2507.454901,0.000594
2509.383713,0.000507
2511.312524,0.000402
2513.241336,0.000323
2515.170147,0.000290
2517.098958,0.000239
2519.027770,0.000185
2520.956581,0.000133
2522.885393,0.000056
2524.814204,0.000064
2526.743016,0.000142
2528.671827,0.000158
2530.600639,0.000114
2532.529450,0.000034
2534.458262,-0.000025
2536.387073,-0.000042
2538.315885,-0.000049
2540.244696,-0.000039
2542.173507,-0.000015
2544.102319,-0.000030
2546.031130,-0.000089
2547.959942,-0.000080
2549.888753,0.000009
2551.817565,0.000055
2553.746376,0.000015
2555.675188,-0.000040
2557.603999,-0.000032
2559.532811,0.000020
2561.461622,0.000031
2563.390434,0.000023
2565.319245,0.000096
2567.248056,0.000171
2569.176868,0.000171
2571.105679,0.000196
2573.034491,0.000230
2574.963302,0.000229
2576.892114,0.000229
2578.820925,0.000259
2580.749737,0.000311
2582.678548,0.000284
2584.607360,0.000246
2586.536171,0.000290
2588.464983,0.000314
2590.393794,0.000332
2592.322605,0.000370
2594.251417,0.000339
2596.180228,0.000240
2598.109040,0.000130
2600.037851,0.000105
2601.966663,0.000179
2603.895474,0.000262
2605.824286,0.000316
2607.753097,0.000321
2609.681909,0.000328
2611.610720,0.000431
2613.539532,0.000600
2615.468343,0.000808
2617.397154,0.001002
2619.325966,0.001112
2621.254777,0.001184
2623.183589,0.001244
2625.112400,0.001296
2627.041212,0.001334
2628.970023,0.001341
2630.898835,0.001354
2632.827646,0.001325
2634.756458,0.001317
2636.685269,0.001428
2638.614081,0.001448
2640.542892,0.001294
2642.471703,0.001058
2644.400515,0.000732
2646.329326,0.000451
2648.258138,0.000311
2650.186949,0.000211
2652.115761,0.000150
2654.044572,0.000143
2655.973384,0.000165
2657.902195,0.000204
2659.831007,0.000147
2661.759818,0.000047
2663.688630,0.000072
2665.617441,0.000153
2667.546253,0.000159
2669.475064,0.000097
2671.403875,0.000050
2673.332687,-0.000011
2675.261498,-0.000028
2677.190310,0.000086
2679.119121,0.000091
2681.047933,-0.000004
2682.976744,0.000025
2684.905556,0.000069
2686.834367,0.000104
2688.763179,0.000121
2690.691990,0.000037
2692.620802,-0.000016
2694.549613,0.000030
2696.478424,0.000087
2698.407236,0.000100
2700.336047,0.000083
2702.264859,0.000074
2704.193670,0.000065
2706.122482,0.000019
2708.051293,-0.000029
2709.980105,-0.000034
2711.908916,-0.000053
2713.837728,-0.000032
2715.766539,0.000045
2717.695351,0.000028
2719.624162,-0.000044
2721.552973,-0.000039
2723.481785,-0.000014
2725.410596,-0.000024
2727.339408,-0.000004
2729.268219,0.000034
2731.197031,0.000040
2733.125842,0.000074
2735.054654,0.000081
2736.983465,0.000038
2738.912277,0.000079
2740.841088,0.000102
2742.769900,0.000028
2744.698711,0.000010
2746.627522,0.000029
2748.556334,-0.000045
2750.485145,-0.000141
2752.413957,-0.000100
2754.342768,0.000029
2756.271580,0.000045
2758.200391,-0.000034
2760.129203,-0.000056
2762.058014,-0.000004
2763.986826,0.000053
2765.915637,0.000054
2767.844449,0.000026
2769.773260,-0.000016
2771.702071,-0.000061
2773.630883,-0.000057
2775.559694,-0.000085
2777.488506,-0.000126
2779.417317,-0.000062
2781.346129,-0.000034
2783.274940,-0.000100
2785.203752,-0.000109
2787.132563,-0.000079
2789.061375,-0.000071
2790.990186,-0.000079
2792.918998,-0.000140
2794.847809,-0.000176
2796.776620,-0.000115
2798.705432,-0.000098
2800.634243,-0.000159
2802.563055,-0.000137
2804.491866,-0.000073
2806.420678,-0.000092
2808.349489,-0.000159
2810.278301,-0.000204
2812.207112,-0.000144
2814.135924,-0.000077
2816.064735,-0.000105
2817.993547,-0.000090
2819.922358,-0.000048
2821.851169,-0.000072
2823.779981,-0.000069
2825.708792,0.000042
2827.637604,0.000136
2829.566415,0.000126
2831.495227,0.000147
2833.424038,0.000228
2835.352850,0.000303
2837.281661,0.000399
2839.210473,0.000524
2841.139284,0.000692
2843.068096,0.000864
2844.996907,0.001067
2846.925719,0.001354
2848.854530,0.001650
2850.783341,0.002023
2852.712153,0.002546
2854.640964,0.003171
2856.569776,0.003972
2858.498587,0.004992
2860.427399,0.006120
2862.356210,0.007439
2864.285022,0.009170
2866.213833,0.011052
2868.142645,0.012945
2870.071456,0.015338
2872.000268,0.018243
2873.929079,0.021320
2875.857890,0.024563
2877.786702,0.027985
2879.715513,0.031470
2881.644325,0.034719
2883.573136,0.037670
2885.501948,0.040235
2887.430759,0.042080
2889.359571,0.043232
2891.288382,0.043656
2893.217194,0.043063
2895.146005,0.041266
2897.074817,0.038648
2899.003628,0.035549
2900.932439,0.032156
2902.861251,0.028151
2904.790062,0.022411
2906.718874,0.019875
2908.647685,0.027588
2910.576497,0.041452
2912.505308,0.053700
2914.434120,0.062796
2916.362931,0.068129
2918.291743,0.069056
2920.220554,0.065987
2922.149366,0.059521
2924.078177,0.050489
2926.006988,0.039742
2927.935800,0.028769
2929.864611,0.018940
2931.793423,0.011020
2933.722234,0.005438
2935.651046,0.002117
2937.579857,0.000546
2939.508669,-0.000015
2941.437480,-0.000004
2943.366292,0.000313
2945.295103,0.000504
2947.223915,0.000608
2949.152726,0.000862
2951.081537,0.001103
2953.010349,0.001265
2954.939160,0.001429
2956.867972,0.001604
2958.796783,0.001817
2960.725595,0.002025
2962.654406,0.002233
2964.583218,0.002410
2966.512029,0.002438
2968.440841,0.002336
2970.369652,0.002247
2972.298464,0.002335
2974.227275,0.002494
2976.156086,0.002537
2978.084898,0.002468
2980.013709,0.002301
2981.942521,0.002049
2983.871332,0.001702
2985.800144,0.001307
2987.728955,0.000958
2989.657767,0.000752
2991.586578,0.000695
2993.515390,0.000580
2995.444201,0.000447
2997.373013,0.000424
2999.301824,0.000356
3001.230635,0.000274
3003.159447,0.000208
3005.088258,0.000124
3007.017070,0.000197
3008.945881,0.000305
3010.874693,0.000214
3012.803504,0.000079
3014.732316,0.000033
3016.661127,0.000023
3018.589939,-0.000026
3020.518750,-0.000106
3022.447562,-0.000084
3024.376373,0.000030
3026.305185,0.000029
3028.233996,-0.000103
3030.162807,-0.000106
3032.091619,0.000006
3034.020430,-0.000014
3035.949242,-0.000059
3037.878053,0.000011
3039.806865,0.000074
3041.735676,0.000068
3043.664488,0.000045
3045.593299,0.000037
3047.522111,0.000038
3049.450922,0.000105
3051.379734,0.000202
3053.308545,0.000208
3055.237356,0.000180
3057.166168,0.000182
3059.094979,0.000202
3061.023791,0.000244
3062.952602,0.000251
3064.881414,0.000229
3066.810225,0.000246
3068.739037,0.000258
3070.667848,0.000230
3072.596660,0.000247
3074.525471,0.000302
3076.454283,0.000276
3078.383094,0.000212
3080.311905,0.000235
3082.240717,0.000347
3084.169528,0.000433
3086.098340,0.000446
3088.027151,0.000459
3089.955963,0.000521
3091.884774,0.000663
3093.813586,0.000793
3095.742397,0.000776
3097.671209,0.000806
3099.600020,0.000985
3101.528832,0.001132
3103.457643,0.001309
3105.386454,0.001518
3107.315266,0.001593
3109.244077,0.001643
3111.172889,0.001711
3113.101700,0.001643
3115.030512,0.001531
3116.959323,0.001544
3118.888135,0.001549
3120.816946,0.001429
3122.745758,0.001368
3124.674569,0.001393
3126.603381,0.001328
3128.532192,0.001144
3130.461003,0.000880
3132.389815,0.000691
3134.318626,0.000614
3136.247438,0.000450
3138.176249,0.000299
3140.105061,0.000248
3142.033872,0.000107
3143.962684,-0.000024
3145.891495,0.000013
3147.820307,0.000070
3149.749118,0.000077
3151.677930,0.000110
3153.606741,0.000112
3155.535552,0.000051
3157.464364,0.000078
3159.393175,0.000133
3161.321987,0.000035
3163.250798,-0.000018
3165.179610,0.000115
3167.108421,0.000197
3169.037233,0.000113
3170.966044,-0.000014
3172.894856,-0.000081
3174.823667,-0.000056
3176.752479,-0.000009
3178.681290,-0.000009
3180.610102,0.000012
3182.538913,0.000002
3184.467724,-0.000089
3186.396536,-0.000048
3188.325347,0.000068
3190.254159,0.000058
3192.182970,-0.000017
3194.111782,-0.000106
3196.040593,-0.000164
3197.969405,-0.000217
3199.898216,-0.000242
3201.827028,-0.000177
3203.755839,-0.000154
3205.684651,-0.000119
3207.613462,-0.000077
3209.542273,-0.000084
3211.471085,-0.000097
3213.399896,-0.000222
3215.328708,-0.000264
3217.257519,-0.000135
3219.186331,-0.000113
3221.115142,-0.000123
3223.043954,-0.000032
3224.972765,0.000047
3226.901577,0.000033
3228.830388,-0.000066
3230.759200,-0.000192
3232.688011,-0.000205
3234.616822,-0.000081
3236.545634,-0.000008
3238.474445,-0.000022
3240.403257,-0.000024
3242.332068,-0.000043
3244.260880,-0.000117
3246.189691,-0.000109
3248.118503,0.000026
3250.047314,0.000050
3251.976126,-0.000042
3253.904937,0.000019
3255.833749,0.000114
3257.762560,0.000027
3259.691371,-0.000046
3261.620183,0.000042
3263.548994,0.000089
3265.477806,0.000065
3267.406617,0.000087
3269.335429,0.000172
3271.264240,0.000281
3273.193052,0.000279
3275.121863,0.000202
3277.050675,0.000214
3278.979486,0.000288
3280.908298,0.000372
3282.837109,0.000436
3284.765920,0.000411
3286.694732,0.000236
3288.623543,0.000042
3290.552355,0.000116
3292.481166,0.000253
3294.409978,0.000244
3296.338789,0.000318
3298.267601,0.000291
3300.196412,0.000122
3302.125224,0.000072
3304.054035,-0.000001
3305.982847,-0.000018
3307.911658,0.000039
3309.840469,-0.000045
3311.769281,-0.000054
3313.698092,0.000127
3315.626904,0.000250
3317.555715,0.000113
3319.484527,-0.000069
3321.413338,-0.000127
3323.342150,-0.000083
3325.270961,-0.000024
3327.199773,-0.000041
3329.128584,-0.000085
3331.057396,-0.000163
3332.986207,-0.000237
3334.915018,-0.000156
3336.843830,-0.000122
3338.772641,-0.000170
3340.701453,-0.000056
3342.630264,0.000037
3344.559076,-0.000097
3346.487887,-0.000128
3348.416699,0.000082
3350.345510,0.000149
3352.274322,0.000182
3354.203133,0.000378
3356.131945,0.000371
3358.060756,0.000276
3359.989568,0.000375
3361.918379,0.000353
3363.847190,0.000087
3365.776002,-0.000169
3367.704813,-0.000237
3369.633625,-0.000034
3371.562436,0.000033
3373.491248,-0.000295
3375.420059,-0.000355
3377.348871,-0.000088
3379.277682,0.000015
3381.206494,0.000148
3383.135305,0.000277
3385.064117,0.000404
3386.992928,0.000587
3388.921739,0.000550
3390.850551,0.000331
3392.779362,0.000292
3394.708174,0.000441
3396.636985,0.000505
3398.565797,0.000540
3400.494608,0.000633
3402.423420,0.000643
3404.352231,0.000569
3406.281043,0.000527
3408.209854,0.000659
3410.138666,0.000740
3412.067477,0.000591
3413.996288,0.000511
3415.925100,0.000498
3417.853911,0.000403
3419.782723,0.000323
3421.711534,0.000331
3423.640346,0.000370
3425.569157,0.000413
3427.497969,0.000439
3429.426780,0.000447
3431.355592,0.000587
3433.284403,0.000673
3435.213215,0.000715
3437.142026,0.000915
3439.070837,0.000936
3440.999649,0.001018
3442.928460,0.001266
3444.857272,0.001163
3446.786083,0.000985
3448.714895,0.000972
3450.643706,0.000974
3452.572518,0.000905
3454.501329,0.000684
3456.430141,0.000569
3458.358952,0.000594
3460.287764,0.000603
3462.216575,0.000615
3464.145386,0.000504
3466.074198,0.000371
3468.003009,0.000379
3469.931821,0.000350
3471.860632,0.000218
3473.789444,0.000142
3475.718255,0.000183
3477.647067,0.000214
3479.575878,0.000136
3481.504690,-0.000024
3483.433501,-0.000112
3485.362313,0.000043
3487.291124,0.000242
3489.219935,0.000286
3491.148747,0.000240
3493.077558,0.000106
3495.006370,0.000052
3496.935181,0.000034
3498.863993,-0.000166
3500.792804,-0.000335
3502.721616,-0.000374
3504.650427,-0.000236
3506.579239,-0.000063
3508.508050,-0.000143
3510.436862,-0.000128
3512.365673,0.000065
3514.294484,0.000216
3516.223296,0.000374
3518.152107,0.000395
3520.080919,0.000431
3522.009730,0.000602
3523.938542,0.000623
3525.867353,0.000666
3527.796165,0.000967
3529.724976,0.001431
3531.653788,0.001824
3533.582599,0.001992
3535.511411,0.002206
3537.440222,0.002521
3539.369034,0.002514
3541.297845,0.002368
3543.226656,0.002473
3545.155468,0.002461
3547.084279,0.002383
3549.013091,0.002781
3550.941902,0.003238
3552.870714,0.003416
3554.799525,0.003862
3556.728337,0.004545
3558.657148,0.005188
3560.585960,0.005922
3562.514771,0.006581
3564.443583,0.007108
3566.372394,0.007425
3568.301205,0.007920
3570.230017,0.009141
3572.158828,0.010041
3574.087640,0.010169
3576.016451,0.010031
3577.945263,0.009607
3579.874074,0.008628
3581.802886,0.007128
3583.731697,0.005737
3585.660509,0.004716
3587.589320,0.005822
3589.518132,0.008393
3591.446943,0.007147
3593.375754,0.004221
3595.304566,0.004570
3597.233377,0.006429
3599.162189,0.007843
3601.091000,0.009014
3603.019812,0.009814
3604.948623,0.009842
3606.877435,0.008828
3608.806246,0.007759
3610.735058,0.006919
3612.663869,0.005834
3614.592681,0.004874
3616.521492,0.003862
3618.450303,0.002636
3620.379115,0.002004
3622.307926,0.001995
3624.236738,0.001844
3626.165549,0.000829
3628.094361,-0.000821
3630.023172,-0.001098
3631.951984,-0.000060
3633.880795,0.000469
3635.809607,0.000717
3637.738418,0.000952
3639.667230,0.000939
3641.596041,0.000783
3643.524852,0.000415
3645.453664,-0.000564
3647.382475,-0.001937
3649.311287,-0.002771
3651.240098,-0.002101
3653.168910,-0.000669
3655.097721,-0.000338
3657.026533,-0.000560
3658.955344,-0.000047
3660.884156,0.000374
3662.812967,0.000447
3664.741779,0.000394
3666.670590,-0.000134
3668.599401,-0.001421
3670.528213,-0.002270
3672.457024,-0.001906
3674.385836,-0.002359
3676.314647,-0.002718
3678.243459,-0.001411
3680.172270,-0.000355
3682.101082,0.000193
3684.029893,0.000402
3685.958705,-0.000223
3687.887516,-0.001271
3689.816328,-0.001636
3691.745139,-0.000870
3693.673951,0.000183
3695.602762,0.000837
3697.531573,0.001074
3699.460385,0.000924
3701.389196,0.000458
3703.318008,0.000566
3705.246819,0.001145
3707.175631,0.000849
3709.104442,-0.000213
3711.033254,-0.000939
3712.962065,-0.000471
3714.890877,0.000758
3716.819688,0.001479
3718.748500,0.001477
3720.677311,0.001167
3722.606122,0.001052
3724.534934,0.001056
3726.463745,0.001100
3728.392557,0.001391
3730.321368,0.001107
3732.250180,0.000216
3734.178991,-0.000214
3736.107803,-0.000046
3738.036614,0.000722
3739.965426,0.001521
3741.894237,0.001068
3743.823049,-0.000672
3745.751860,-0.001080
3747.680671,-0.000416
3749.609483,-0.001013
3751.538294,-0.001142
3753.467106,0.000325
3755.395917,0.001400
3757.324729,0.001482
3759.253540,0.001259
3761.182352,0.001684
3763.111163,0.002079
3765.039975,0.001794
3766.968786,0.001592
3768.897598,0.001268
3770.826409,0.001151
3772.755220,0.001836
3774.684032,0.002309
3776.612843,0.002106
3778.541655,0.001535
3780.470466,0.001420
3782.399278,0.001795
3784.328089,0.001714
3786.256901,0.001611
3788.185712,0.001780
3790.114524,0.001786
3792.043335,0.001823
3793.972147,0.001540
3795.900958,0.000820
3797.829769,0.000541
3799.758581,0.000043
3801.687392,-0.000718
3803.616204,-0.000161
3805.545015,0.000207
3807.473827,0.000089
3809.402638,0.000883
3811.331450,0.001478
3813.260261,0.001064
3815.189073,-0.000167
3817.117884,-0.000794
3819.046696,-0.000597
3820.975507,-0.001039
3822.904318,-0.000531
3824.833130,0.000573
3826.761941,0.000653
3828.690753,0.000672
3830.619564,0.000387
3832.548376,-0.000262
3834.477187,-0.000459
3836.405999,-0.000986
3838.334810,-0.001528
3840.263622,-0.001048
3842.192433,-0.000349
3844.121245,0.000133
3846.050056,0.000525
3847.978867,0.000576
3849.907679,-0.000051
3851.836490,-0.001706
3853.765302,-0.003059
3855.694113,-0.001857
3857.622925,-0.000184
3859.551736,0.000283
3861.480548,-0.000008
3863.409359,-0.000642
3865.338171,-0.000855
3867.266982,-0.000695
3869.195794,-0.001194
3871.124605,-0.001216
3873.053417,-0.000439
3874.982228,-0.000021
3876.911039,0.000378
3878.839851,0.000118
3880.768662,-0.000541
3882.697474,-0.000298
3884.626285,-0.000429
3886.555097,-0.000626
3888.483908,-0.000044
3890.412720,-0.000172
3892.341531,-0.000424
3894.270343,0.000180
3896.199154,0.000347
3898.127966,-0.000375
3900.056777,-0.001139
3901.985588,-0.001485
3903.914400,-0.001376
3905.843211,-0.000632
3907.772023,0.000295
3909.700834,0.000703
3911.629646,0.000592
3913.558457,0.000289
3915.487269,-0.000021
3917.416080,-0.000271
3919.344892,-0.000227
3921.273703,0.000059
3923.202515,0.000125
3925.131326,0.000036
3927.060137,0.000046
3928.988949,-0.000019
3930.917760,-0.000253
3932.846572,-0.000284
3934.775383,0.000084
3936.704195,0.000319
3938.633006,0.000243
3940.561818,0.000094
3942.490629,-0.000097
3944.419441,-0.000029
3946.348252,0.000213
3948.277064,0.000125
3950.205875,-0.000072
3952.134686,0.000025
3954.063498,0.000166
3955.992309,0.000172
3957.921121,0.000182
3959.849932,0.000195
3961.778744,0.000147
3963.707555,0.000145
3965.636367,0.000241
3967.565178,0.000306
3969.493990,0.000319
3971.422801,0.000343
3973.351613,0.000354
3975.280424,0.000391
3977.209235,0.000503
3979.138047,0.000552
3981.066858,0.000308
3982.995670,0.000032
3984.924481,0.000192
3986.853293,0.000441
3988.782104,0.000361
3990.710916,0.000148
3992.639727,0.000039
3994.568539,0.000206
3996.497350,0.000533
3998.426162,0.000596
4000.354973,0.000414
