XLabel,Wavenumber
YLabel,Absorbance
FileType,Absorbance
DisplayDirection,20300
PeakDirection,20312
898.826141,0.002272
900.754953,0.000311
902.683764,-0.001416
904.612576,-0.001559
906.541387,-0.000082
908.470199,0.000523
910.399010,0.000392
912.327822,-0.000018
914.256633,-0.000548
916.185445,-0.000573
918.114256,-0.000992
920.043068,-0.001200
921.971879,-0.000543
923.900690,-0.000369
925.829502,-0.000686
927.758313,-0.000734
929.687125,-0.000195
931.615936,0.000122
933.544748,0.000240
935.473559,0.000045
937.402371,-0.000381
939.331182,-0.000519
941.259994,-0.000349
943.188805,-0.000253
945.117617,-0.000182
947.046428,-0.000252
948.975240,-0.000314
950.904051,-0.000188
952.832862,-0.000038
954.761674,-0.000050
956.690485,-0.000243
958.619297,-0.000313
960.548108,-0.000272
962.476920,-0.000144
964.405731,0.000076
966.334543,-0.000062
968.263354,-0.000526
970.192166,-0.000665
972.120977,-0.000197
974.049789,0.000177
975.978600,-0.000055
977.907411,-0.000306
979.836223,-0.000328
981.765034,-0.000362
983.693846,-0.000448
985.622657,-0.000544
987.551469,-0.000262
989.480280,0.000087
991.409092,-0.000048
993.337903,-0.000224
995.266715,-0.000241
997.195526,-0.000259
999.124338,-0.000204
1001.053149,-0.000169
1002.981960,-0.000075
1004.910772,0.000063
1006.839583,-0.000001
1008.768395,-0.000091
1010.697206,-0.000038
1012.626018,-0.000022
1014.554829,-0.000081
1016.483641,-0.000021
1018.412452,0.000120
1020.341264,0.000166
1022.270075,0.000194
1024.198887,0.000220
1026.127698,0.000272
1028.056509,0.000428
1029.985321,0.000560
1031.914132,0.000698
1033.842944,0.000891
1035.771755,0.001017
1037.700567,0.001082
1039.629378,0.001077
1041.558190,0.001014
1043.487001,0.000924
1045.415813,0.000787
1047.344624,0.000658
1049.273436,0.000492
1051.202247,0.000328
1053.131058,0.000322
1055.059870,0.000344
1056.988681,0.000237
1058.917493,0.000042
1060.846304,-0.000132
1062.775116,-0.000204
1064.703927,-0.000214
1066.632739,-0.000237
1068.561550,-0.000251
1070.490362,-0.000233
1072.419173,-0.000152
1074.347985,-0.000078
1076.276796,-0.000033
1078.205607,0.000050
1080.134419,0.000057
1082.063230,-0.000100
1083.992042,-0.000150
1085.920853,-0.000033
1087.849665,0.000046
1089.778476,0.000050
1091.707288,-0.000019
1093.636099,-0.000032
1095.564911,0.000001
1097.493722,-0.000009
1099.422534,0.000067
1101.351345,0.000081
1103.280156,-0.000011
1105.208968,0.000013
1107.137779,0.000016
1109.066591,-0.000018
1110.995402,0.000089
1112.924214,0.000188
1114.853025,0.000127
1116.781837,0.000103
1118.710648,0.000154
1120.639460,0.000052
1122.568271,-0.000056
1124.497083,0.000018
1126.425894,0.000074
1128.354706,0.000024
1130.283517,-0.000033
1132.212328,-0.000125
1134.141140,-0.000213
1136.069951,-0.000151
1137.998763,-0.000069
1139.927574,-0.000064
1141.856386,-0.000017
1143.785197,0.000027
1145.714009,0.000011
1147.642820,-0.000040
1149.571632,-0.000033
1151.500443,0.000104
1153.429255,0.000208
1155.358066,0.000235
1157.286877,0.000272
1159.215689,0.000303
1161.144500,0.000392
1163.073312,0.000467
1165.002123,0.000574
1166.930935,0.000713
1168.859746,0.000846
1170.788558,0.001046
1172.717369,0.001166
1174.646181,0.001215
1176.574992,0.001446
1178.503804,0.001691
1180.432615,0.001837
1182.361426,0.001975
1184.290238,0.002128
1186.219049,0.002367
1188.147861,0.002595
1190.076672,0.002771
1192.005484,0.002973
1193.934295,0.003117
1195.863107,0.003218
1197.791918,0.003258
1199.720730,0.003164
1201.649541,0.003228
1203.578353,0.003515
1205.507164,0.003589
1207.435975,0.003592
1209.364787,0.003850
1211.293598,0.004161
1213.222410,0.004500
1215.151221,0.005015
1217.080033,0.005491
1219.008844,0.005827
1220.937656,0.006447
1222.866467,0.007085
1224.795279,0.007486
1226.724090,0.008417
1228.652902,0.009661
1230.581713,0.011019
1232.510524,0.013038
1234.439336,0.015556
1236.368147,0.019234
1238.296959,0.024974
1240.225770,0.033064
1242.154582,0.044951
1244.083393,0.062184
1246.012205,0.084683
1247.941016,0.111089
1249.869828,0.137887
1251.798639,0.159290
1253.727451,0.169774
1255.656262,0.168043
1257.585073,0.168043
1259.513885,0.184587
1261.442696,0.197431
1263.371508,0.182699
1265.300319,0.165585
1267.229131,0.170381
1269.157942,0.184104
1271.086754,0.184207
1273.015565,0.162552
1274.944377,0.127042
1276.873188,0.092062
1278.802000,0.066788
1280.730811,0.051820
1282.659622,0.043130
1284.588434,0.037809
1286.517245,0.034976
1288.446057,0.033287
1290.374868,0.032151
1292.303680,0.031599
1294.232491,0.031178
1296.161303,0.031019
1298.090114,0.031405
1300.018926,0.032450
1301.947737,0.033470
1303.876549,0.034171
1305.805360,0.035038
1307.734172,0.036008
1309.662983,0.037132
1311.591794,0.037620
1313.520606,0.037342
1315.449417,0.036147
1317.378229,0.033777
1319.307040,0.031042
1321.235852,0.028345
1323.164663,0.029900
1325.093475,0.032407
1327.022286,0.026801
1328.951098,0.020984
1330.879909,0.020811
1332.808721,0.020646
1334.737532,0.020590
1336.666343,0.020669
1338.595155,0.019904
1340.523966,0.019788
1342.452778,0.018987
1344.381589,0.016349
1346.310401,0.013069
1348.239212,0.010204
1350.168024,0.007868
1352.096835,0.005999
1354.025647,0.004583
1355.954458,0.003651
1357.883270,0.002954
1359.812081,0.001454
1361.740892,-0.000477
1363.669704,-0.000136
1365.598515,0.001511
1367.527327,0.001848
1369.456138,0.002113
1371.384950,0.002165
1373.313761,0.000834
1375.242573,0.001041
1377.171384,0.002719
1379.100196,0.003440
1381.029007,0.003756
1382.957819,0.004018
1384.886630,0.002950
1386.815441,0.001202
1388.744253,0.002069
1390.673064,0.003793
1392.601876,0.002013
1394.530687,-0.000270
1396.459499,0.000164
1398.388310,0.000585
1400.317122,0.002338
1402.245933,0.004311
1404.174745,0.003780
1406.103556,0.004232
1408.032368,0.005785
1409.961179,0.006261
1411.889990,0.006515
1413.818802,0.006984
1415.747613,0.005920
1417.676425,0.001936
1419.605236,0.001486
1421.534048,0.006007
1423.462859,0.008102
1425.391671,0.009290
1427.320482,0.010403
1429.249294,0.009543
1431.178105,0.010388
1433.106917,0.011565
1435.035728,0.007944
1436.964539,0.006212
1438.893351,0.011545
1440.822162,0.014942
1442.750974,0.015489
1444.679785,0.015529
1446.608597,0.014222
1448.537408,0.014269
1450.466220,0.015761
1452.395031,0.015895
1454.323843,0.011897
1456.252654,0.004083
1458.181466,0.005678
1460.110277,0.014948
1462.039089,0.017917
1463.967900,0.015639
1465.896711,0.016404
1467.825523,0.019818
1469.754334,0.017891
1471.683146,0.011827
1473.611957,0.011487
1475.540769,0.015871
1477.469580,0.019680
1479.398392,0.021719
1481.327203,0.022189
1483.256015,0.022493
1485.184826,0.021276
1487.113638,0.017813
1489.042449,0.014970
1490.971260,0.016736
1492.900072,0.019972
1494.828883,0.017755
1496.757695,0.013967
1498.686506,0.015314
1500.615318,0.018365
1502.544129,0.018500
1504.472941,0.010377
1506.401752,0.000217
1508.330564,0.005316
1510.259375,0.012684
1512.188187,0.014925
1514.116998,0.014211
1516.045809,0.011106
1517.974621,0.009136
1519.903432,0.006116
1521.832244,0.004319
1523.761055,0.008578
1525.689867,0.011127
1527.618678,0.012895
1529.547490,0.015838
1531.476301,0.013903
1533.405113,0.010842
1535.333924,0.013402
1537.262736,0.010822
1539.191547,0.000187
1541.120358,0.000007
1543.049170,0.007514
1544.977981,0.013938
1546.906793,0.018983
1548.835604,0.020724
1550.764416,0.021726
1552.693227,0.022028
1554.622039,0.021798
1556.550850,0.018671
1558.479662,0.014226
1560.408473,0.030197
1562.337285,0.051244
1564.266096,0.065098
1566.194907,0.079984
1568.123719,0.095625
1570.052530,0.119276
1571.981342,0.153319
1573.910153,0.185162
1575.838965,0.226631
1577.767776,0.285722
1579.696588,0.346958
1581.625399,0.411573
1583.554211,0.477726
1585.483022,0.546489
1587.411834,0.622117
1589.340645,0.704688
1591.269456,0.792909
1593.198268,0.870606
1595.127079,0.919819
1597.055891,0.936081
1598.984702,0.933515
1600.913514,0.909366
1602.842325,0.877444
1604.771137,0.855617
1606.699948,0.831065
1608.628760,0.802031
1610.557571,0.745172
1612.486383,0.673241
1614.415194,0.590783
1616.344005,0.517537
1618.272817,0.590940
1620.201628,0.818368
1622.130440,1.051049
1624.059251,1.177773
1625.988063,1.265440
1627.916874,1.322742
1629.845686,1.311479
1631.774497,1.204733
1633.703309,1.051389
1635.632120,0.866813
1637.560932,0.716889
1639.489743,0.599043
1641.418555,0.475960
1643.347366,0.362050
1645.276177,0.259267
1647.204989,0.166440
1649.133800,0.107407
1651.062612,0.061745
1652.991423,0.017941
1654.920235,0.008830
1656.849046,0.011982
1658.777858,0.009135
1660.706669,0.004720
1662.635481,0.001619
1664.564292,0.003322
1666.493104,0.003935
1668.421915,-0.000433
1670.350726,0.000424
1672.279538,0.005024
1674.208349,0.005864
1676.137161,0.009813
1678.065972,0.017151
1679.994784,0.020777
1681.923595,0.018945
1683.852407,0.016471
1685.781218,0.025387
1687.710030,0.035091
1689.638841,0.038277
1691.567653,0.041113
1693.496464,0.038186
1695.425275,0.034604
1697.354087,0.041551
1699.282898,0.040470
1701.211710,0.034820
1703.140521,0.039960
1705.069333,0.044758
1706.998144,0.048379
1708.926956,0.056810
1710.855767,0.067798
1712.784579,0.071716
1714.713390,0.067906
1716.642202,0.066889
1718.571013,0.074393
1720.499824,0.085579
1722.428636,0.092843
1724.357447,0.097850
1726.286259,0.103146
1728.215070,0.107914
1730.143882,0.114649
1732.072693,0.120039
1734.001505,0.131415
1735.930316,0.155040
1737.859128,0.172766
1739.787939,0.184386
1741.716751,0.194411
1743.645562,0.198735
1745.574373,0.196449
1747.503185,0.190747
1749.431996,0.185226
1751.360808,0.185647
1753.289619,0.190529
1755.218431,0.191050
1757.147242,0.186684
1759.076054,0.176361
1761.004865,0.153685
1762.933677,0.125803
1764.862488,0.102485
1766.791300,0.078291
1768.720111,0.056344
1770.648922,0.039166
1772.577734,0.026733
1774.506545,0.023426
1776.435357,0.022153
1778.364168,0.019221
1780.292980,0.017261
1782.221791,0.017078
1784.150603,0.017236
1786.079414,0.017922
1788.008226,0.019059
1789.937037,0.016718
1791.865849,0.012725
1793.794660,0.013231
1795.723471,0.015273
1797.652283,0.014572
1799.581094,0.012074
1801.509906,0.011306
1803.438717,0.013156
1805.367529,0.014534
1807.296340,0.014080
1809.225152,0.012555
1811.153963,0.011419
1813.082775,0.011419
1815.011586,0.011054
1816.940398,0.009991
1818.869209,0.009196
1820.798021,0.008610
1822.726832,0.006889
1824.655643,0.005004
1826.584455,0.004775
1828.513266,0.003756
1830.442078,0.003370
1832.370889,0.005820
1834.299701,0.007278
1836.228512,0.007133
1838.157324,0.007364
1840.086135,0.007527
1842.014947,0.005343
1843.943758,0.002649
1845.872570,0.004206
1847.801381,0.006680
1849.730192,0.007333
1851.659004,0.007631
1853.587815,0.007573
1855.516627,0.007300
1857.445438,0.006919
1859.374250,0.006543
1861.303061,0.006188
1863.231873,0.005554
1865.160684,0.004151
1867.089496,0.001323
1869.018307,-0.000264
1870.947119,0.001259
1872.875930,0.003635
1874.804741,0.005350
1876.733553,0.004745
1878.662364,0.003029
1880.591176,0.003109
1882.519987,0.003830
1884.448799,0.004457
1886.377610,0.005047
1888.306422,0.004744
1890.235233,0.005203
1892.164045,0.006600
1894.092856,0.007150
1896.021668,0.007557
1897.950479,0.008264
1899.879290,0.008594
1901.808102,0.008611
1903.736913,0.008634
1905.665725,0.008505
1907.594536,0.007961
1909.523348,0.007499
1911.452159,0.007511
1913.380971,0.007559
1915.309782,0.006448
1917.238594,0.004597
1919.167405,0.004446
1921.096217,0.004865
1923.025028,0.004415
1924.953839,0.004552
1926.882651,0.004719
1928.811462,0.004274
1930.740274,0.003863
1932.669085,0.003478
1934.597897,0.003083
1936.526708,0.002742
1938.455520,0.002443
1940.384331,0.001516
1942.313143,0.000509
1944.241954,0.000777
1946.170766,0.001321
1948.099577,0.001401
1950.028388,0.001402
1951.957200,0.001286
1953.886011,0.001144
1955.814823,0.001117
1957.743634,0.001181
1959.672446,0.001132
1961.601257,0.001021
1963.530069,0.000895
1965.458880,0.000474
1967.387692,0.000271
1969.316503,0.000645
1971.245315,0.000935
1973.174126,0.000976
1975.102938,0.000938
1977.031749,0.000864
1978.960560,0.000897
1980.889372,0.000922
1982.818183,0.000908
1984.746995,0.000803
1986.675806,0.000591
1988.604618,0.000413
1990.533429,0.000047
1992.462241,-0.000077
1994.391052,0.000403
1996.319864,0.000673
1998.248675,0.000658
2000.177487,0.000762
2002.106298,0.000790
2004.035109,0.000736
2005.963921,0.000680
2007.892732,0.000568
2009.821544,0.000526
2011.750355,0.000615
2013.679167,0.000575
2015.607978,0.000274
2017.536790,0.000107
2019.465601,0.000294
2021.394413,0.000476
2023.323224,0.000508
2025.252036,0.000523
2027.180847,0.000513
2029.109658,0.000454
2031.038470,0.000396
2032.967281,0.000408
2034.896093,0.000452
2036.824904,0.000461
2038.753716,0.000460
2040.682527,0.000431
2042.611339,0.000405
2044.540150,0.000407
2046.468962,0.000421
2048.397773,0.000452
2050.326585,0.000421
2052.255396,0.000362
2054.184207,0.000406
2056.113019,0.000467
2058.041830,0.000453
2059.970642,0.000436
2061.899453,0.000318
2063.828265,0.000082
2065.757076,0.000047
2067.685888,0.000202
2069.614699,0.000336
2071.543511,0.000427
2073.472322,0.000406
2075.401134,0.000359
2077.329945,0.000344
2079.258756,0.000325
2081.187568,0.000370
2083.116379,0.000395
2085.045191,0.000370
2086.974002,0.000369
2088.902814,0.000344
2090.831625,0.000295
2092.760437,0.000276
2094.689248,0.000277
2096.618060,0.000277
2098.546871,0.000314
2100.475683,0.000357
2102.404494,0.000353
2104.333305,0.000349
2106.262117,0.000343
2108.190928,0.000320
2110.119740,0.000333
2112.048551,0.000395
2113.977363,0.000462
2115.906174,0.000494
2117.834986,0.000475
2119.763797,0.000512
2121.692609,0.000610
2123.621420,0.000551
2125.550232,0.000385
2127.479043,0.000334
2129.407854,0.000348
2131.336666,0.000321
2133.265477,0.000242
2135.194289,0.000179
2137.123100,0.000176
2139.051912,0.000197
2140.980723,0.000214
2142.909535,0.000174
2144.838346,0.000101
2146.767158,0.000099
2148.695969,0.000173
2150.624781,0.000235
2152.553592,0.000251
2154.482404,0.000277
2156.411215,0.000345
2158.340026,0.000397
2160.268838,0.000374
2162.197649,0.000318
2164.126461,0.000336
2166.055272,0.000405
2167.984084,0.000435
2169.912895,0.000448
2171.841707,0.000481
2173.770518,0.000543
2175.699330,0.000622
2177.628141,0.000686
2179.556953,0.000733
2181.485764,0.000794
2183.414575,0.000897
2185.343387,0.000979
2187.272198,0.001016
2189.201010,0.001077
2191.129821,0.001202
2193.058633,0.001418
2194.987444,0.001642
2196.916256,0.001801
2198.845067,0.001964
2200.773879,0.002175
2202.702690,0.002415
2204.631502,0.002603
2206.560313,0.002688
2208.489124,0.002746
2210.417936,0.002809
2212.346747,0.002813
2214.275559,0.002694
2216.204370,0.002449
2218.133182,0.002123
2220.061993,0.001667
2221.990805,0.001169
2223.919616,0.001052
2225.848428,0.001457
2227.777239,0.002079
2229.706051,0.002659
2231.634862,0.003097
2233.563673,0.003418
2235.492485,0.003612
2237.421296,0.003635
2239.350108,0.003490
2241.278919,0.003174
2243.207731,0.002759
2245.136542,0.002280
2247.065354,0.001765
2248.994165,0.001306
2250.922977,0.000925
2252.851788,0.000617
2254.780600,0.000391
2256.709411,0.000266
2258.638222,0.000205
2260.567034,0.000153
2262.495845,0.000154
2264.424657,0.000182
2266.353468,0.000193
2268.282280,0.000211
2270.211091,0.000237
2272.139903,0.000291
2274.068714,0.000322
2275.997526,0.000264
2277.926337,0.000204
2279.855149,0.000180
2281.783960,0.000155
2283.712771,0.000202
2285.641583,0.000299
2287.570394,0.000317
2289.499206,0.000296
2291.428017,0.000297
2293.356829,0.000268
2295.285640,0.000277
2297.214452,0.000414
2299.143263,0.000530
2301.072075,0.000532
2303.000886,0.000561
2304.929698,0.000661
2306.858509,0.000739
2308.787320,0.000795
2310.716132,0.000886
2312.644943,0.001007
2314.573755,0.001116
2316.502566,0.001179
2318.431378,0.001201
2320.360189,0.001232
2322.289001,0.001262
2324.217812,0.001244
2326.146624,0.001246
2328.075435,0.001339
2330.004247,0.001434
2331.933058,0.001418
2333.861870,0.001372
2335.790681,0.001396
2337.719492,0.001430
2339.648304,0.001396
2341.577115,0.001303
2343.505927,0.001216
2345.434738,0.001070
2347.363550,0.000882
2349.292361,0.000820
2351.221173,0.000867
2353.149984,0.000965
2355.078796,0.001065
2357.007607,0.001079
2358.936419,0.001091
2360.865230,0.001160
2362.794041,0.001257
2364.722853,0.001368
2366.651664,0.001409
2368.580476,0.001343
2370.509287,0.001195
2372.438099,0.001029
2374.366910,0.000899
2376.295722,0.000757
2378.224533,0.000565
2380.153345,0.000350
2382.082156,0.000214
2384.010968,0.000160
2385.939779,0.000063
2387.868590,-0.000022
2389.797402,-0.000055
2391.726213,-0.000093
2393.655025,-0.000080
2395.583836,-0.000035
2397.512648,-0.000015
2399.441459,-0.000019
2401.370271,-0.000019
2403.299082,0.000019
2405.227894,-0.000001
2407.156705,-0.000035
2409.085517,0.000068
2411.014328,0.000160
2412.943139,0.000153
2414.871951,0.000145
2416.800762,0.000101
2418.729574,0.000051
2420.658385,0.000049
2422.587197,0.000022
2424.516008,-0.000000
2426.444820,0.000049
2428.373631,0.000152
2430.302443,0.000221
2432.231254,0.000175
2434.160066,0.000105
2436.088877,0.000088
2438.017688,0.000066
2439.946500,0.000048
2441.875311,0.000073
2443.804123,0.000092
2445.732934,0.000104
2447.661746,0.000143
2449.590557,0.000155
2451.519369,0.000154
2453.448180,0.000189
2455.376992,0.000175
2457.305803,0.000097
2459.234615,0.000098
2461.163426,0.000182
2463.092237,0.000225
2465.021049,0.000277
2466.949860,0.000362
2468.878672,0.000400
2470.807483,0.000433
2472.736295,0.000494
2474.665106,0.000546
2476.593918,0.000539
2478.522729,0.000511
2480.451541,0.000562
2482.380352,0.000576
2484.309164,0.000552
2486.237975,0.000593
2488.166786,0.000566
2490.095598,0.000554
2492.024409,0.000684
2493.953221,0.000729
2495.882032,0.000607
2497.810844,0.000555
2499.739655,0.000625
2501.668467,0.000652
2503.597278,0.000713
2505.526090,0.000802
2507.454901,0.000769
2509.383713,0.000796
2511.312524,0.000856
2513.241336,0.000731
2515.170147,0.000572
2517.098958,0.000532
2519.027770,0.000544
2520.956581,0.000556
2522.885393,0.000556
2524.814204,0.000508
2526.743016,0.000453
2528.671827,0.000448
2530.600639,0.000436
2532.529450,0.000441
2534.458262,0.000479
2536.387073,0.000513
2538.315885,0.000480
2540.244696,0.000376
2542.173507,0.000375
2544.102319,0.000461
2546.031130,0.000508
2547.959942,0.000489
2549.888753,0.000377
2551.817565,0.000355
2553.746376,0.000481
2555.675188,0.000539
2557.603999,0.000552
2559.532811,0.000638
2561.461622,0.000709
2563.390434,0.000679
2565.319245,0.000640
2567.248056,0.000653
2569.176868,0.000698
2571.105679,0.000796
2573.034491,0.000858
2574.963302,0.000873
2576.892114,0.000946
2578.820925,0.001023
2580.749737,0.001054
2582.678548,0.001022
2584.607360,0.000951
2586.536171,0.000921
2588.464983,0.000970
2590.393794,0.001065
2592.322605,0.001040
2594.251417,0.000866
2596.180228,0.000662
2598.109040,0.000570
2600.037851,0.000670
2601.966663,0.000776
2603.895474,0.000830
2605.824286,0.000872
2607.753097,0.000911
2609.681909,0.001066
2611.610720,0.001196
2613.539532,0.001343
2615.468343,0.001722
2617.397154,0.002044
2619.325966,0.002176
2621.254777,0.002351
2623.183589,0.002543
2625.112400,0.002626
2627.041212,0.002658
2628.970023,0.002722
2630.898835,0.002748
2632.827646,0.002669
2634.756458,0.002643
2636.685269,0.002703
2638.614081,0.002614
2640.542892,0.002344
2642.471703,0.001919
2644.400515,0.001347
2646.329326,0.000866
2648.258138,0.000591
2650.186949,0.000481
2652.115761,0.000435
2654.044572,0.000332
2655.973384,0.000307
2657.902195,0.000377
2659.831007,0.000399
2661.759818,0.000390
2663.688630,0.000343
2665.617441,0.000277
2667.546253,0.000191
2669.475064,0.000054
2671.403875,-0.000044
2673.332687,-0.000063
2675.261498,-0.000002
2677.190310,0.000074
2679.119121,0.000059
2681.047933,0.000015
2682.976744,0.000025
2684.905556,0.000069
2686.834367,0.000033
2688.763179,-0.000016
2690.691990,0.000019
2692.620802,-0.000029
2694.549613,-0.000084
2696.478424,-0.000036
2698.407236,0.000033
2700.336047,0.000148
2702.264859,0.000166
2704.193670,0.000053
2706.122482,0.000024
2708.051293,0.000036
2709.980105,0.000024
2711.908916,0.000024
2713.837728,-0.000020
2715.766539,-0.000055
2717.695351,-0.000023
2719.624162,-0.000033
2721.552973,-0.000062
2723.481785,0.000002
2725.410596,0.000089
2727.339408,0.000043
2729.268219,-0.000047
2731.197031,0.000004
2733.125842,0.000053
2735.054654,0.000052
2736.983465,0.000106
2738.912277,0.000075
2740.841088,-0.000000
2742.769900,0.000004
2744.698711,0.000013
2746.627522,-0.000006
2748.556334,-0.000036
2750.485145,-0.000063
2752.413957,-0.000077
2754.342768,-0.000076
2756.271580,-0.000056
2758.200391,-0.000022
2760.129203,-0.000016
2762.058014,-0.000046
2763.986826,-0.000043
2765.915637,-0.000043
2767.844449,-0.000086
2769.773260,-0.000109
2771.702071,-0.000122
2773.630883,-0.000122
2775.559694,-0.000066
2777.488506,-0.000037
2779.417317,-0.000122
2781.346129,-0.000126
2783.274940,0.000013
2785.203752,0.000027
2787.132563,-0.000108
2789.061375,-0.000180
2790.990186,-0.000149
2792.918998,-0.000140
2794.847809,-0.000146
2796.776620,-0.000100
2798.705432,-0.000062
2800.634243,-0.000025
2802.563055,0.000010
2804.491866,-0.000049
2806.420678,-0.000120
2808.349489,-0.000128
2810.278301,-0.000114
2812.207112,-0.000040
2814.135924,0.000027
2816.064735,-0.000028
2817.993547,-0.000086
2819.922358,-0.000056
2821.851169,0.000045
2823.779981,0.000143
2825.708792,0.000187
2827.637604,0.000305
2829.566415,0.000433
2831.495227,0.000476
2833.424038,0.000601
2835.352850,0.000700
2837.281661,0.000698
2839.210473,0.000834
2841.139284,0.001083
2843.068096,0.001318
2844.996907,0.001590
2846.925719,0.001930
2848.854530,0.002402
2850.783341,0.003053
2852.712153,0.003766
2854.640964,0.004566
2856.569776,0.005636
2858.498587,0.006939
2860.427399,0.008451
2862.356210,0.010296
2864.285022,0.012533
2866.213833,0.015179
2868.142645,0.018218
2870.071456,0.021692
2872.000268,0.025568
2873.929079,0.029723
2875.857890,0.034128
2877.786702,0.038742
2879.715513,0.043427
2881.644325,0.047923
2883.573136,0.051985
2885.501948,0.055305
2887.430759,0.057696
2889.359571,0.059195
2891.288382,0.059703
2893.217194,0.059002
2895.146005,0.056751
2897.074817,0.053240
2899.003628,0.048915
2900.932439,0.044231
2902.861251,0.038761
2904.790062,0.031383
2906.718874,0.028859
2908.647685,0.039405
2910.576497,0.057431
2912.505308,0.073498
2914.434120,0.085399
2916.362931,0.092253
2918.291743,0.093396
2920.220554,0.089227
2922.149366,0.080575
2924.078177,0.068414
2926.006988,0.053870
2927.935800,0.039142
2929.864611,0.025954
2931.793423,0.015151
2933.722234,0.007380
2935.651046,0.002787
2937.579857,0.000697
2939.508669,-0.000010
2941.437480,-0.000137
2943.366292,0.000021
2945.295103,0.000308
2947.223915,0.000666
2949.152726,0.001063
2951.081537,0.001564
2953.010349,0.002057
2954.939160,0.002505
2956.867972,0.002961
2958.796783,0.003395
2960.725595,0.003776
2962.654406,0.004186
2964.583218,0.004589
2966.512029,0.004735
2968.440841,0.004723
2970.369652,0.004781
2972.298464,0.004899
2974.227275,0.005122
2976.156086,0.005357
2978.084898,0.005404
2980.013709,0.005223
2981.942521,0.004721
2983.871332,0.003990
2985.800144,0.003361
2987.728955,0.002924
2989.657767,0.002597
2991.586578,0.002269
2993.515390,0.001984
2995.444201,0.001857
2997.373013,0.001823
2999.301824,0.001823
3001.230635,0.001756
3003.159447,0.001679
3005.088258,0.001762
3007.017070,0.001876
3008.945881,0.001877
3010.874693,0.001735
3012.803504,0.001600
3014.732316,0.001612
3016.661127,0.001688
3018.589939,0.001735
3020.518750,0.001627
3022.447562,0.001513
3024.376373,0.001535
3026.305185,0.001542
3028.233996,0.001566
3030.162807,0.001549
3032.091619,0.001509
3034.020430,0.001640
3035.949242,0.001793
3037.878053,0.001888
3039.806865,0.001989
3041.735676,0.002060
3043.664488,0.002098
3045.593299,0.002123
3047.522111,0.002162
3049.450922,0.002249
3051.379734,0.002331
3053.308545,0.002277
3055.237356,0.002212
3057.166168,0.002303
3059.094979,0.002392
3061.023791,0.002448
3062.952602,0.002508
3064.881414,0.002476
3066.810225,0.002472
3068.739037,0.002597
3070.667848,0.002680
3072.596660,0.002676
3074.525471,0.002697
3076.454283,0.002691
3078.383094,0.002636
3080.311905,0.002621
3082.240717,0.002697
3084.169528,0.002917
3086.098340,0.003121
3088.027151,0.003144
3089.955963,0.003132
3091.884774,0.003203
3093.813586,0.003314
3095.742397,0.003436
3097.671209,0.003669
3099.600020,0.004053
3101.528832,0.004425
3103.457643,0.004712
3105.386454,0.005003
3107.315266,0.005259
3109.244077,0.005326
3111.172889,0.005289
3113.101700,0.005295
3115.030512,0.005238
3116.959323,0.005088
3118.888135,0.004950
3120.816946,0.004835
3122.745758,0.004741
3124.674569,0.004640
3126.603381,0.004424
3128.532192,0.004139
3130.461003,0.003854
3132.389815,0.003458
3134.318626,0.003038
3136.247438,0.002775
3138.176249,0.002670
3140.105061,0.002609
3142.033872,0.002383
3143.962684,0.002074
3145.891495,0.001918
3147.820307,0.001895
3149.749118,0.001905
3151.677930,0.001864
3153.606741,0.001828
3155.535552,0.001838
3157.464364,0.001758
3159.393175,0.001687
3161.321987,0.001708
3163.250798,0.001670
3165.179610,0.001664
3167.108421,0.001640
3169.037233,0.001451
3170.966044,0.001469
3172.894856,0.001635
3174.823667,0.001493
3176.752479,0.001285
3178.681290,0.001232
3180.610102,0.001162
3182.538913,0.001062
3184.467724,0.000939
3186.396536,0.000900
3188.325347,0.000995
3190.254159,0.000973
3192.182970,0.000890
3194.111782,0.000914
3196.040593,0.000840
3197.969405,0.000711
3199.898216,0.000731
3201.827028,0.000768
3203.755839,0.000718
3205.684651,0.000654
3207.613462,0.000580
3209.542273,0.000444
3211.471085,0.000369
3213.399896,0.000470
3215.328708,0.000478
3217.257519,0.000268
3219.186331,0.000124
3221.115142,0.000130
3223.043954,0.000164
3224.972765,0.000134
3226.901577,0.000031
3228.830388,0.000001
3230.759200,0.000023
3232.688011,-0.000009
3234.616822,-0.000007
3236.545634,0.000017
3238.474445,0.000002
3240.403257,0.000043
3242.332068,0.000056
3244.260880,-0.000061
3246.189691,-0.000031
3248.118503,0.000123
3250.047314,0.000040
3251.976126,-0.000140
3253.904937,-0.000112
3255.833749,-0.000011
3257.762560,-0.000123
3259.691371,-0.000285
3261.620183,-0.000166
3263.548994,-0.000019
3265.477806,-0.000096
3267.406617,-0.000097
3269.335429,0.000071
3271.264240,0.000154
3273.193052,0.000084
3275.121863,-0.000002
3277.050675,0.000050
3278.979486,0.000118
3280.908298,0.000054
3282.837109,0.000042
3284.765920,0.000060
3286.694732,-0.000079
3288.623543,-0.000307
3290.552355,-0.000413
3292.481166,-0.000278
3294.409978,-0.000109
3296.338789,-0.000109
3298.267601,-0.000189
3300.196412,-0.000217
3302.125224,-0.000213
3304.054035,-0.000253
3305.982847,-0.000347
3307.911658,-0.000430
3309.840469,-0.000311
3311.769281,-0.000180
3313.698092,-0.000213
3315.626904,-0.000133
3317.555715,-0.000163
3319.484527,-0.000382
3321.413338,-0.000427
3323.342150,-0.000291
3325.270961,-0.000086
3327.199773,-0.000136
3329.128584,-0.000351
3331.057396,-0.000301
3332.986207,-0.000268
3334.915018,-0.000387
3336.843830,-0.000449
3338.772641,-0.000481
3340.701453,-0.000529
3342.630264,-0.000458
3344.559076,-0.000159
3346.487887,0.000044
3348.416699,0.000001
3350.345510,-0.000095
3352.274322,-0.000130
3354.203133,-0.000017
3356.131945,0.000063
3358.060756,0.000052
3359.989568,0.000116
3361.918379,0.000108
3363.847190,-0.000040
3365.776002,-0.000157
3367.704813,-0.000122
3369.633625,0.000071
3371.562436,0.000156
3373.491248,0.000038
3375.420059,-0.000125
3377.348871,-0.000205
3379.277682,-0.000251
3381.206494,-0.000156
3383.135305,0.000118
3385.064117,0.000375
3386.992928,0.000480
3388.921739,0.000388
3390.850551,0.000196
3392.779362,0.000049
3394.708174,0.000012
3396.636985,0.000150
3398.565797,0.000378
3400.494608,0.000490
3402.423420,0.000469
3404.352231,0.000367
3406.281043,0.000194
3408.209854,0.000123
3410.138666,0.000217
3412.067477,0.000376
3413.996288,0.000664
3415.925100,0.000806
3417.853911,0.000536
3419.782723,0.000239
3421.711534,0.000192
3423.640346,0.000330
3425.569157,0.000543
3427.497969,0.000636
3429.426780,0.000747
3431.355592,0.000824
3433.284403,0.000844
3435.213215,0.000939
3437.142026,0.001021
3439.070837,0.001085
3440.999649,0.001092
3442.928460,0.000966
3444.857272,0.000790
3446.786083,0.000784
3448.714895,0.001034
3450.643706,0.001147
3452.572518,0.001024
3454.501329,0.001042
3456.430141,0.001063
3458.358952,0.000776
3460.287764,0.000483
3462.216575,0.000524
3464.145386,0.000665
3466.074198,0.000579
3468.003009,0.000404
3469.931821,0.000417
3471.860632,0.000568
3473.789444,0.000661
3475.718255,0.000628
3477.647067,0.000502
3479.575878,0.000280
3481.504690,0.000157
3483.433501,0.000305
3485.362313,0.000472
3487.291124,0.000619
3489.219935,0.000843
3491.148747,0.000998
3493.077558,0.001058
3495.006370,0.000965
3496.935181,0.000807
3498.863993,0.000703
3500.792804,0.000439
3502.721616,0.000218
3504.650427,0.000396
3506.579239,0.000664
3508.508050,0.000746
3510.436862,0.000972
3512.365673,0.001471
3514.294484,0.001745
3516.223296,0.001764
3518.152107,0.001927
3520.080919,0.001973
3522.009730,0.001874
3523.938542,0.002206
3525.867353,0.003002
3527.796165,0.003937
3529.724976,0.005006
3531.653788,0.006288
3533.582599,0.007380
3535.511411,0.007908
3537.440222,0.008197
3539.369034,0.008308
3541.297845,0.007873
3543.226656,0.007147
3545.155468,0.006692
3547.084279,0.007001
3549.013091,0.008083
3550.941902,0.008730
3552.870714,0.008606
3554.799525,0.008901
3556.728337,0.009613
3558.657148,0.010167
3560.585960,0.010563
3562.514771,0.010486
3564.443583,0.009659
3566.372394,0.008693
3568.301205,0.009348
3570.230017,0.011464
3572.158828,0.012511
3574.087640,0.012111
3576.016451,0.011475
3577.945263,0.010871
3579.874074,0.009959
3581.802886,0.008533
3583.731697,0.006778
3585.660509,0.004921
3587.589320,0.004672
3589.518132,0.006615
3591.446943,0.007135
3593.375754,0.005890
3595.304566,0.006077
3597.233377,0.007780
3599.162189,0.009398
3601.091000,0.010452
3603.019812,0.011056
3604.948623,0.010750
3606.877435,0.008843
3608.806246,0.006970
3610.735058,0.006557
3612.663869,0.006242
3614.592681,0.006023
3616.521492,0.005760
3618.450303,0.004634
3620.379115,0.005058
3622.307926,0.006783
3624.236738,0.006790
3626.165549,0.004514
3628.094361,0.001190
3630.023172,0.001519
3631.951984,0.005441
3633.880795,0.007722
3635.809607,0.008579
3637.738418,0.009364
3639.667230,0.009595
3641.596041,0.009391
3643.524852,0.008265
3645.453664,0.005296
3647.382475,0.001524
3649.311287,-0.000063
3651.240098,0.002580
3653.168910,0.006630
3655.097721,0.007959
3657.026533,0.008479
3658.955344,0.010686
3660.884156,0.012154
3662.812967,0.012292
3664.741779,0.011660
3666.670590,0.009698
3668.599401,0.006200
3670.528213,0.003751
3672.457024,0.004103
3674.385836,0.003211
3676.314647,0.003052
3678.243459,0.007124
3680.172270,0.010632
3682.101082,0.011960
3684.029893,0.011895
3685.958705,0.009985
3687.887516,0.006976
3689.816328,0.006031
3691.745139,0.008736
3693.673951,0.011914
3695.602762,0.013199
3697.531573,0.013192
3699.460385,0.012627
3701.389196,0.011758
3703.318008,0.011893
3705.246819,0.012431
3707.175631,0.011059
3709.104442,0.008608
3711.033254,0.007031
3712.962065,0.008040
3714.890877,0.011031
3716.819688,0.012522
3718.748500,0.012256
3720.677311,0.011514
3722.606122,0.010781
3724.534934,0.010545
3726.463745,0.010608
3728.392557,0.010658
3730.321368,0.009194
3732.250180,0.006027
3734.178991,0.004001
3736.107803,0.004541
3738.036614,0.006638
3739.965426,0.007987
3741.894237,0.006322
3743.823049,0.002330
3745.751860,0.001217
3747.680671,0.002687
3749.609483,0.001696
3751.538294,0.001922
3753.467106,0.006115
3755.395917,0.009316
3757.324729,0.009980
3759.253540,0.009744
3761.182352,0.010658
3763.111163,0.011768
3765.039975,0.011218
3766.968786,0.010595
3768.897598,0.010525
3770.826409,0.011223
3772.755220,0.012839
3774.684032,0.013446
3776.612843,0.012908
3778.541655,0.012107
3780.470466,0.012020
3782.399278,0.012906
3784.328089,0.013257
3786.256901,0.013431
3788.185712,0.014074
3790.114524,0.013960
3792.043335,0.013312
3793.972147,0.012359
3795.900958,0.010347
3797.829769,0.008988
3799.758581,0.007826
3801.687392,0.006116
3803.616204,0.007329
3805.545015,0.008815
3807.473827,0.009164
3809.402638,0.011124
3811.331450,0.012185
3813.260261,0.010877
3815.189073,0.007990
3817.117884,0.006151
3819.046696,0.006281
3820.975507,0.005608
3822.904318,0.007155
3824.833130,0.010147
3826.761941,0.010691
3828.690753,0.010692
3830.619564,0.010020
3832.548376,0.008247
3834.477187,0.007059
3836.405999,0.005714
3838.334810,0.004849
3840.263622,0.006327
3842.192433,0.008549
3844.121245,0.010007
3846.050056,0.010927
3847.978867,0.010294
3849.907679,0.007241
3851.836490,0.002663
3853.765302,0.000084
3855.694113,0.003568
3857.622925,0.008285
3859.551736,0.009186
3861.480548,0.008091
3863.409359,0.006795
3865.338171,0.006015
3867.266982,0.005968
3869.195794,0.004865
3871.124605,0.004880
3873.053417,0.006850
3874.982228,0.007749
3876.911039,0.008161
3878.839851,0.007325
3880.768662,0.005566
3882.697474,0.005707
3884.626285,0.005323
3886.555097,0.004684
3888.483908,0.005805
3890.412720,0.005778
3892.341531,0.005304
3894.270343,0.006213
3896.199154,0.006070
3898.127966,0.003933
3900.056777,0.001767
3901.985588,0.001082
3903.914400,0.001702
3905.843211,0.003570
3907.772023,0.005887
3909.700834,0.006845
3911.629646,0.006545
3913.558457,0.005876
3915.487269,0.004772
3917.416080,0.003816
3919.344892,0.003784
3921.273703,0.004224
3923.202515,0.004231
3925.131326,0.003881
3927.060137,0.003792
3928.988949,0.003615
3930.917760,0.003012
3932.846572,0.002852
3934.775383,0.003449
3936.704195,0.003737
3938.633006,0.003403
3940.561818,0.002762
3942.490629,0.002066
3944.419441,0.002080
3946.348252,0.002271
3948.277064,0.001891
3950.205875,0.001770
3952.134686,0.001910
3954.063498,0.001810
3955.992309,0.001676
3957.921121,0.001517
3959.849932,0.001247
3961.778744,0.001043
3963.707555,0.001017
3965.636367,0.000879
3967.565178,0.000498
3969.493990,0.000155
3971.422801,-0.000034
3973.351613,-0.000203
3975.280424,-0.000204
3977.209235,-0.000121
3979.138047,0.000040
3981.066858,0.000144
3982.995670,0.000155
3984.924481,0.000090
3986.853293,0.000093
3988.782104,0.000084
3990.710916,-0.000036
3992.639727,-0.000097
3994.568539,-0.000103
3996.497350,-0.000037
3998.426162,0.000049
4000.354973,0.000019
