XLabel,Wavenumber
YLabel,Absorbance
FileType,Absorbance
DisplayDirection,20300
PeakDirection,20312
898.826141,0.001334
900.754953,-0.000482
902.683764,-0.000733
904.612576,-0.000534
906.541387,-0.000066
908.470199,-0.000045
910.399010,0.000258
912.327822,0.000370
914.256633,-0.000154
916.185445,-0.000121
918.114256,-0.000473
920.043068,-0.000929
921.971879,0.000042
923.900690,0.000802
925.829502,0.000218
927.758313,-0.000075
929.687125,0.000243
931.615936,0.000380
933.544748,-0.000056
935.473559,-0.000070
937.402371,-0.000267
939.331182,-0.000681
941.259994,-0.000480
943.188805,-0.000227
945.117617,-0.000190
947.046428,-0.000268
948.975240,-0.000428
950.904051,-0.000369
952.832862,-0.000134
954.761674,0.000162
956.690485,0.000198
958.619297,0.000049
960.548108,0.000141
962.476920,0.000121
964.405731,-0.000048
966.334543,-0.000148
968.263354,-0.000289
970.192166,-0.000232
972.120977,0.000066
974.049789,0.000228
975.978600,0.000127
977.907411,0.000127
979.836223,0.000308
981.765034,0.000193
983.693846,-0.000051
985.622657,-0.000067
987.551469,0.000091
989.480280,0.000318
991.409092,0.000388
993.337903,0.000277
995.266715,0.000141
997.195526,-0.000010
999.124338,0.000009
1001.053149,0.000171
1002.981960,0.000161
1004.910772,0.000094
1006.839583,0.000123
1008.768395,0.000092
1010.697206,0.000050
1012.626018,0.000076
1014.554829,0.000084
1016.483641,0.000093
1018.412452,0.000190
1020.341264,0.000352
1022.270075,0.000430
1024.198887,0.000448
1026.127698,0.000494
1028.056509,0.000560
1029.985321,0.000730
1031.914132,0.000933
1033.842944,0.001046
1035.771755,0.001157
1037.700567,0.001223
1039.629378,0.001207
1041.558190,0.001222
1043.487001,0.001158
1045.415813,0.000937
1047.344624,0.000835
1049.273436,0.000869
1051.202247,0.000751
1053.131058,0.000582
1055.059870,0.000531
1056.988681,0.000405
1058.917493,0.000178
1060.846304,0.000034
1062.775116,-0.000076
1064.703927,-0.000146
1066.632739,-0.000184
1068.561550,-0.000204
1070.490362,-0.000158
1072.419173,-0.000091
1074.347985,-0.000070
1076.276796,-0.000053
1078.205607,-0.000010
1080.134419,-0.000012
1082.063230,-0.000087
1083.992042,-0.000098
1085.920853,-0.000036
1087.849665,0.000025
1089.778476,0.000070
1091.707288,0.000034
1093.636099,-0.000021
1095.564911,-0.000046
1097.493722,-0.000029
1099.422534,0.000038
1101.351345,0.000030
1103.280156,0.000042
1105.208968,0.000076
1107.137779,-0.000059
1109.066591,-0.000154
1110.995402,-0.000081
1112.924214,-0.000052
1114.853025,-0.000091
1116.781837,-0.000083
1118.710648,-0.000068
1120.639460,-0.000096
1122.568271,-0.000059
1124.497083,0.000031
1126.425894,0.000021
1128.354706,-0.000086
1130.283517,-0.000163
1132.212328,-0.000219
1134.141140,-0.000317
1136.069951,-0.000364
1137.998763,-0.000324
1139.927574,-0.000208
1141.856386,-0.000128
1143.785197,-0.000073
1145.714009,0.000015
1147.642820,0.000078
1149.571632,0.000169
1151.500443,0.000334
1153.429255,0.000431
1155.358066,0.000508
1157.286877,0.000603
1159.215689,0.000662
1161.144500,0.000740
1163.073312,0.000811
1165.002123,0.000931
1166.930935,0.001120
1168.859746,0.001226
1170.788558,0.001340
1172.717369,0.001489
1174.646181,0.001590
1176.574992,0.001776
1178.503804,0.002015
1180.432615,0.002200
1182.361426,0.002291
1184.290238,0.002327
1186.219049,0.002478
1188.147861,0.002714
1190.076672,0.002951
1192.005484,0.003153
1193.934295,0.003250
1195.863107,0.003357
1197.791918,0.003439
1199.720730,0.003365
1201.649541,0.003405
1203.578353,0.003644
1205.507164,0.003727
1207.435975,0.003708
1209.364787,0.003875
1211.293598,0.004147
1213.222410,0.004449
1215.151221,0.004893
1217.080033,0.005313
1219.008844,0.005581
1220.937656,0.006067
1222.866467,0.006558
1224.795279,0.006872
1226.724090,0.007672
1228.652902,0.008703
1230.581713,0.009800
1232.510524,0.011505
1234.439336,0.013653
1236.368147,0.016714
1238.296959,0.021449
1240.225770,0.028037
1242.154582,0.037654
1244.083393,0.051616
1246.012205,0.069806
1247.941016,0.091165
1249.869828,0.112798
1251.798639,0.129919
1253.727451,0.138183
1255.656262,0.136691
1257.585073,0.136659
1259.513885,0.149956
1261.442696,0.160530
1263.371508,0.149189
1265.300319,0.135291
1267.229131,0.138885
1269.157942,0.150042
1271.086754,0.150417
1273.015565,0.133354
1274.944377,0.105116
1276.873188,0.077135
1278.802000,0.056851
1280.730811,0.044854
1282.659622,0.037915
1284.588434,0.033725
1286.517245,0.031548
1288.446057,0.030206
1290.374868,0.029407
1292.303680,0.029160
1294.232491,0.028866
1296.161303,0.028810
1298.090114,0.029377
1300.018926,0.030563
1301.947737,0.031644
1303.876549,0.032342
1305.805360,0.033134
1307.734172,0.033997
1309.662983,0.035070
1311.591794,0.035526
1313.520606,0.035171
1315.449417,0.034070
1317.378229,0.031897
1319.307040,0.029252
1321.235852,0.026744
1323.164663,0.028314
1325.093475,0.030612
1327.022286,0.025225
1328.951098,0.019739
1330.879909,0.019623
1332.808721,0.019487
1334.737532,0.019401
1336.666343,0.019410
1338.595155,0.018569
1340.523966,0.018410
1342.452778,0.017746
1344.381589,0.015327
1346.310401,0.012326
1348.239212,0.009767
1350.168024,0.007619
1352.096835,0.005808
1354.025647,0.004394
1355.954458,0.003572
1357.883270,0.002990
1359.812081,0.001594
1361.740892,-0.000187
1363.669704,0.000500
1365.598515,0.002468
1367.527327,0.002797
1369.456138,0.002958
1371.384950,0.002868
1373.313761,0.001481
1375.242573,0.001712
1377.171384,0.003347
1379.100196,0.003911
1381.029007,0.004126
1382.957819,0.004384
1384.886630,0.003251
1386.815441,0.001361
1388.744253,0.002195
1390.673064,0.004012
1392.601876,0.002125
1394.530687,-0.000256
1396.459499,0.000276
1398.388310,0.000768
1400.317122,0.002497
1402.245933,0.004471
1404.174745,0.003876
1406.103556,0.004292
1408.032368,0.005898
1409.961179,0.006494
1411.889990,0.006802
1413.818802,0.007197
1415.747613,0.006053
1417.676425,0.001904
1419.605236,0.001420
1421.534048,0.006136
1423.462859,0.008329
1425.391671,0.009583
1427.320482,0.010699
1429.249294,0.009734
1431.178105,0.010591
1433.106917,0.011783
1435.035728,0.008000
1436.964539,0.006271
1438.893351,0.011922
1440.822162,0.015407
1442.750974,0.015855
1444.679785,0.015935
1446.608597,0.014572
1448.537408,0.014494
1450.466220,0.016085
1452.395031,0.016377
1454.323843,0.012242
1456.252654,0.004033
1458.181466,0.005706
1460.110277,0.015400
1462.039089,0.018443
1463.967900,0.016038
1465.896711,0.016874
1467.825523,0.020428
1469.754334,0.018403
1471.683146,0.012138
1473.611957,0.011800
1475.540769,0.016319
1477.469580,0.020313
1479.398392,0.022491
1481.327203,0.023000
1483.256015,0.023319
1485.184826,0.022039
1487.113638,0.018450
1489.042449,0.015482
1490.971260,0.017248
1492.900072,0.020674
1494.828883,0.018466
1496.757695,0.014499
1498.686506,0.015900
1500.615318,0.019101
1502.544129,0.019245
1504.472941,0.010826
1506.401752,0.000267
1508.330564,0.005583
1510.259375,0.013285
1512.188187,0.015587
1514.116998,0.014770
1516.045809,0.011550
1517.974621,0.009581
1519.903432,0.006491
1521.832244,0.004702
1523.761055,0.009189
1525.689867,0.011844
1527.618678,0.013728
1529.547490,0.016793
1531.476301,0.014720
1533.405113,0.011497
1535.333924,0.014121
1537.262736,0.011387
1539.191547,0.000312
1541.120358,-0.000316
1543.049170,0.007376
1544.977981,0.013909
1546.906793,0.019082
1548.835604,0.020740
1550.764416,0.021525
1552.693227,0.021533
1554.622039,0.020843
1556.550850,0.016997
1558.479662,0.011532
1560.408473,0.027004
1562.337285,0.047734
1564.266096,0.060608
1566.194907,0.074005
1568.123719,0.087743
1570.052530,0.108900
1571.981342,0.140169
1573.910153,0.168665
1575.838965,0.205348
1577.767776,0.259305
1579.696588,0.315654
1581.625399,0.374697
1583.554211,0.435699
1585.483022,0.499623
1587.411834,0.569605
1589.340645,0.645898
1591.269456,0.726884
1593.198268,0.797956
1595.127079,0.843741
1597.055891,0.860306
1598.984702,0.859752
1600.913514,0.839376
1602.842325,0.811163
1604.771137,0.791069
1606.699948,0.766998
1608.628760,0.737587
1610.557571,0.683839
1612.486383,0.616689
1614.415194,0.539147
1616.344005,0.469835
1618.272817,0.537768
1620.201628,0.746776
1622.130440,0.959622
1624.059251,1.082147
1625.988063,1.165240
1627.916874,1.215390
1629.845686,1.203487
1631.774497,1.107890
1633.703309,0.967823
1635.632120,0.798547
1637.560932,0.659771
1639.489743,0.550398
1641.418555,0.436564
1643.347366,0.331101
1645.276177,0.235520
1647.204989,0.150019
1649.133800,0.096620
1651.062612,0.054394
1652.991423,0.013479
1654.920235,0.006628
1656.849046,0.011033
1658.777858,0.008869
1660.706669,0.004669
1662.635481,0.001614
1664.564292,0.003457
1666.493104,0.004100
1668.421915,-0.000553
1670.350726,0.000138
1672.279538,0.004678
1674.208349,0.005162
1676.137161,0.008784
1678.065972,0.015957
1679.994784,0.019257
1681.923595,0.016899
1683.852407,0.013858
1685.781218,0.022743
1687.710030,0.032647
1689.638841,0.035830
1691.567653,0.038676
1693.496464,0.035709
1695.425275,0.031617
1697.354087,0.037332
1699.282898,0.035538
1701.211710,0.030961
1703.140521,0.036808
1705.069333,0.041018
1706.998144,0.043881
1708.926956,0.051544
1710.855767,0.061463
1712.784579,0.064460
1714.713390,0.059892
1716.642202,0.057986
1718.571013,0.064730
1720.499824,0.075303
1722.428636,0.081675
1724.357447,0.085349
1726.286259,0.089163
1728.215070,0.092088
1730.143882,0.096364
1732.072693,0.098809
1734.001505,0.106236
1735.930316,0.126110
1737.859128,0.140870
1739.787939,0.149612
1741.716751,0.157810
1743.645562,0.161483
1745.574373,0.159424
1747.503185,0.154424
1749.431996,0.149313
1751.360808,0.149742
1753.289619,0.154516
1755.218431,0.155054
1757.147242,0.151471
1759.076054,0.143366
1761.004865,0.124812
1762.933677,0.102521
1764.862488,0.084179
1766.791300,0.064326
1768.720111,0.046076
1770.648922,0.031537
1772.577734,0.021243
1774.506545,0.019521
1776.435357,0.019249
1778.364168,0.016930
1780.292980,0.015366
1782.221791,0.015469
1784.150603,0.015699
1786.079414,0.016388
1788.008226,0.017501
1789.937037,0.014947
1791.865849,0.010827
1793.794660,0.011543
1795.723471,0.013795
1797.652283,0.013169
1799.581094,0.010737
1801.509906,0.010079
1803.438717,0.012025
1805.367529,0.013473
1807.296340,0.013121
1809.225152,0.011700
1811.153963,0.010669
1813.082775,0.010776
1815.011586,0.010520
1816.940398,0.009521
1818.869209,0.008722
1820.798021,0.008184
1822.726832,0.006491
1824.655643,0.004569
1826.584455,0.004309
1828.513266,0.003194
1830.442078,0.002821
1832.370889,0.005427
1834.299701,0.006884
1836.228512,0.006613
1838.157324,0.006747
1840.086135,0.006851
1842.014947,0.004536
1843.943758,0.001752
1845.872570,0.003470
1847.801381,0.006067
1849.730192,0.006727
1851.659004,0.007074
1853.587815,0.007045
1855.516627,0.006813
1857.445438,0.006463
1859.374250,0.006058
1861.303061,0.005743
1863.231873,0.005205
1865.160684,0.003856
1867.089496,0.001034
1869.018307,-0.000506
1870.947119,0.001173
1872.875930,0.003497
1874.804741,0.004922
1876.733553,0.004434
1878.662364,0.003050
1880.591176,0.003106
1882.519987,0.003665
1884.448799,0.004136
1886.377610,0.004530
1888.306422,0.004038
1890.235233,0.004357
1892.164045,0.005686
1894.092856,0.006115
1896.021668,0.006397
1897.950479,0.007068
1899.879290,0.007362
1901.808102,0.007338
1903.736913,0.007291
1905.665725,0.007077
1907.594536,0.006515
1909.523348,0.006074
1911.452159,0.006122
1913.380971,0.006242
1915.309782,0.005178
1917.238594,0.003356
1919.167405,0.003257
1921.096217,0.003735
1923.025028,0.003350
1924.953839,0.003528
1926.882651,0.003717
1928.811462,0.003334
1930.740274,0.003015
1932.669085,0.002709
1934.597897,0.002369
1936.526708,0.002081
1938.455520,0.001795
1940.384331,0.000792
1942.313143,-0.000291
1944.241954,0.000012
1946.170766,0.000640
1948.099577,0.000758
1950.028388,0.000790
1951.957200,0.000665
1953.886011,0.000461
1955.814823,0.000422
1957.743634,0.000453
1959.672446,0.000337
1961.601257,0.000266
1963.530069,0.000237
1965.458880,-0.000205
1967.387692,-0.000492
1969.316503,-0.000120
1971.245315,0.000206
1973.174126,0.000230
1975.102938,0.000226
1977.031749,0.000215
1978.960560,0.000243
1980.889372,0.000239
1982.818183,0.000183
1984.746995,0.000076
1986.675806,-0.000090
1988.604618,-0.000280
1990.533429,-0.000675
1992.462241,-0.000768
1994.391052,-0.000239
1996.319864,0.000039
1998.248675,0.000021
2000.177487,0.000142
2002.106298,0.000154
2004.035109,0.000065
2005.963921,0.000018
2007.892732,-0.000035
2009.821544,-0.000022
2011.750355,0.000081
2013.679167,0.000029
2015.607978,-0.000287
2017.536790,-0.000442
2019.465601,-0.000251
2021.394413,-0.000088
2023.323224,-0.000058
2025.252036,-0.000026
2027.180847,-0.000003
2029.109658,-0.000005
2031.038470,-0.000018
2032.967281,-0.000056
2034.896093,-0.000118
2036.824904,-0.000179
2038.753716,-0.000219
2040.682527,-0.000224
2042.611339,-0.000191
2044.540150,-0.000125
2046.468962,-0.000049
2048.397773,-0.000057
2050.326585,-0.000155
2052.255396,-0.000149
2054.184207,0.000006
2056.113019,0.000061
2058.041830,-0.000046
2059.970642,-0.000111
2061.899453,-0.000192
2063.828265,-0.000400
2065.757076,-0.000444
2067.685888,-0.000254
2069.614699,-0.000123
2071.543511,-0.000084
2073.472322,-0.000067
2075.401134,-0.000087
2077.329945,-0.000095
2079.258756,-0.000058
2081.187568,-0.000038
2083.116379,-0.000082
2085.045191,-0.000087
2086.974002,-0.000040
2088.902814,-0.000064
2090.831625,-0.000114
2092.760437,-0.000097
2094.689248,-0.000068
2096.618060,-0.000071
2098.546871,-0.000059
2100.475683,-0.000030
2102.404494,0.000025
2104.333305,0.000079
2106.262117,0.000059
2108.190928,0.000018
2110.119740,0.000006
2112.048551,0.000020
2113.977363,0.000036
2115.906174,0.000043
2117.834986,0.000101
2119.763797,0.000200
2121.692609,0.000296
2123.621420,0.000282
2125.550232,0.000160
2127.479043,0.000102
2129.407854,0.000084
2131.336666,0.000030
2133.265477,-0.000024
2135.194289,-0.000055
2137.123100,-0.000052
2139.051912,-0.000064
2140.980723,-0.000097
2142.909535,-0.000100
2144.838346,-0.000104
2146.767158,-0.000119
2148.695969,-0.000070
2150.624781,0.000008
2152.553592,0.000021
2154.482404,0.000058
2156.411215,0.000155
2158.340026,0.000178
2160.268838,0.000109
2162.197649,0.000071
2164.126461,0.000141
2166.055272,0.000234
2167.984084,0.000269
2169.912895,0.000308
2171.841707,0.000341
2173.770518,0.000356
2175.699330,0.000434
2177.628141,0.000550
2179.556953,0.000612
2181.485764,0.000633
2183.414575,0.000701
2185.343387,0.000833
2187.272198,0.000966
2189.201010,0.001066
2191.129821,0.001191
2193.058633,0.001393
2194.987444,0.001611
2196.916256,0.001840
2198.845067,0.002088
2200.773879,0.002301
2202.702690,0.002491
2204.631502,0.002679
2206.560313,0.002861
2208.489124,0.002974
2210.417936,0.002994
2212.346747,0.002975
2214.275559,0.002863
2216.204370,0.002628
2218.133182,0.002300
2220.061993,0.001778
2221.990805,0.001215
2223.919616,0.001104
2225.848428,0.001531
2227.777239,0.002199
2229.706051,0.002880
2231.634862,0.003429
2233.563673,0.003829
2235.492485,0.004008
2237.421296,0.003939
2239.350108,0.003786
2241.278919,0.003550
2243.207731,0.003099
2245.136542,0.002476
2247.065354,0.001936
2248.994165,0.001503
2250.922977,0.001059
2252.851788,0.000682
2254.780600,0.000392
2256.709411,0.000257
2258.638222,0.000268
2260.567034,0.000256
2262.495845,0.000282
2264.424657,0.000327
2266.353468,0.000296
2268.282280,0.000294
2270.211091,0.000336
2272.139903,0.000347
2274.068714,0.000308
2275.997526,0.000284
2277.926337,0.000339
2279.855149,0.000348
2281.783960,0.000302
2283.712771,0.000347
2285.641583,0.000418
2287.570394,0.000452
2289.499206,0.000491
2291.428017,0.000482
2293.356829,0.000414
2295.285640,0.000422
2297.214452,0.000569
2299.143263,0.000673
2301.072075,0.000653
2303.000886,0.000663
2304.929698,0.000733
2306.858509,0.000797
2308.787320,0.000830
2310.716132,0.000897
2312.644943,0.001047
2314.573755,0.001148
2316.502566,0.001159
2318.431378,0.001198
2320.360189,0.001271
2322.289001,0.001293
2324.217812,0.001256
2326.146624,0.001240
2328.075435,0.001267
2330.004247,0.001238
2331.933058,0.001123
2333.861870,0.001049
2335.790681,0.001082
2337.719492,0.001120
2339.648304,0.001080
2341.577115,0.001058
2343.505927,0.001104
2345.434738,0.001063
2347.363550,0.000924
2349.292361,0.000839
2351.221173,0.000843
2353.149984,0.000925
2355.078796,0.001093
2357.007607,0.001175
2358.936419,0.001078
2360.865230,0.001057
2362.794041,0.001199
2364.722853,0.001295
2366.651664,0.001277
2368.580476,0.001242
2370.509287,0.001127
2372.438099,0.000904
2374.366910,0.000852
2376.295722,0.000941
2378.224533,0.000860
2380.153345,0.000648
2382.082156,0.000501
2384.010968,0.000435
2385.939779,0.000378
2387.868590,0.000356
2389.797402,0.000360
2391.726213,0.000334
2393.655025,0.000306
2395.583836,0.000293
2397.512648,0.000287
2399.441459,0.000294
2401.370271,0.000336
2403.299082,0.000384
2405.227894,0.000355
2407.156705,0.000316
2409.085517,0.000320
2411.014328,0.000351
2412.943139,0.000455
2414.871951,0.000528
2416.800762,0.000442
2418.729574,0.000323
2420.658385,0.000297
2422.587197,0.000295
2424.516008,0.000278
2426.444820,0.000321
2428.373631,0.000419
2430.302443,0.000451
2432.231254,0.000388
2434.160066,0.000340
2436.088877,0.000350
2438.017688,0.000366
2439.946500,0.000385
2441.875311,0.000390
2443.804123,0.000359
2445.732934,0.000332
2447.661746,0.000344
2449.590557,0.000362
2451.519369,0.000361
2453.448180,0.000385
2455.376992,0.000427
2457.305803,0.000447
2459.234615,0.000469
2461.163426,0.000450
2463.092237,0.000408
2465.021049,0.000462
2466.949860,0.000539
2468.878672,0.000590
2470.807483,0.000666
2472.736295,0.000699
2474.665106,0.000696
2476.593918,0.000715
2478.522729,0.000763
2480.451541,0.000811
2482.380352,0.000741
2484.309164,0.000653
2486.237975,0.000715
2488.166786,0.000770
2490.095598,0.000762
2492.024409,0.000821
2493.953221,0.000817
2495.882032,0.000705
2497.810844,0.000694
2499.739655,0.000758
2501.668467,0.000803
2503.597278,0.000893
2505.526090,0.000959
2507.454901,0.000993
2509.383713,0.001048
2511.312524,0.001007
2513.241336,0.000879
2515.170147,0.000768
2517.098958,0.000679
2519.027770,0.000629
2520.956581,0.000637
2522.885393,0.000671
2524.814204,0.000674
2526.743016,0.000664
2528.671827,0.000655
2530.600639,0.000629
2532.529450,0.000609
2534.458262,0.000598
2536.387073,0.000626
2538.315885,0.000619
2540.244696,0.000520
2542.173507,0.000507
2544.102319,0.000559
2546.031130,0.000565
2547.959942,0.000569
2549.888753,0.000543
2551.817565,0.000536
2553.746376,0.000593
2555.675188,0.000608
2557.603999,0.000564
2559.532811,0.000543
2561.461622,0.000617
2563.390434,0.000680
2565.319245,0.000627
2567.248056,0.000608
2569.176868,0.000693
2571.105679,0.000815
2573.034491,0.000892
2574.963302,0.000882
2576.892114,0.000923
2578.820925,0.001019
2580.749737,0.000999
2582.678548,0.000932
2584.607360,0.000904
2586.536171,0.000881
2588.464983,0.000893
2590.393794,0.000938
2592.322605,0.000923
2594.251417,0.000787
2596.180228,0.000598
2598.109040,0.000502
2600.037851,0.000548
2601.966663,0.000671
2603.895474,0.000786
2605.824286,0.000808
2607.753097,0.000798
2609.681909,0.000905
2611.610720,0.001039
2613.539532,0.001186
2615.468343,0.001467
2617.397154,0.001681
2619.325966,0.001759
2621.254777,0.001918
2623.183589,0.002088
2625.112400,0.002128
2627.041212,0.002133
2628.970023,0.002199
2630.898835,0.002237
2632.827646,0.002159
2634.756458,0.002137
2636.685269,0.002209
2638.614081,0.002160
2640.542892,0.001908
2642.471703,0.001469
2644.400515,0.001025
2646.329326,0.000754
2648.258138,0.000521
2650.186949,0.000351
2652.115761,0.000316
2654.044572,0.000272
2655.973384,0.000256
2657.902195,0.000289
2659.831007,0.000300
2661.759818,0.000275
2663.688630,0.000194
2665.617441,0.000142
2667.546253,0.000109
2669.475064,0.000023
2671.403875,-0.000024
2673.332687,-0.000049
2675.261498,-0.000071
2677.190310,-0.000077
2679.119121,-0.000091
2681.047933,-0.000082
2682.976744,-0.000050
2684.905556,-0.000005
2686.834367,-0.000000
2688.763179,-0.000034
2690.691990,-0.000024
2692.620802,-0.000031
2694.549613,-0.000062
2696.478424,-0.000084
2698.407236,-0.000093
2700.336047,0.000015
2702.264859,0.000095
2704.193670,0.000025
2706.122482,-0.000009
2708.051293,-0.000028
2709.980105,-0.000059
2711.908916,-0.000010
2713.837728,-0.000007
2715.766539,-0.000019
2717.695351,0.000069
2719.624162,0.000109
2721.552973,0.000078
2723.481785,0.000083
2725.410596,0.000104
2727.339408,0.000063
2729.268219,0.000000
2731.197031,0.000010
2733.125842,0.000006
2735.054654,0.000015
2736.983465,0.000101
2738.912277,0.000062
2740.841088,-0.000033
2742.769900,0.000007
2744.698711,0.000042
2746.627522,0.000014
2748.556334,0.000012
2750.485145,-0.000006
2752.413957,0.000005
2754.342768,0.000091
2756.271580,0.000074
2758.200391,0.000012
2760.129203,0.000055
2762.058014,0.000067
2763.986826,0.000040
2765.915637,0.000025
2767.844449,-0.000017
2769.773260,-0.000054
2771.702071,-0.000081
2773.630883,-0.000071
2775.559694,-0.000040
2777.488506,-0.000050
2779.417317,-0.000058
2781.346129,-0.000023
2783.274940,0.000044
2785.203752,0.000096
2787.132563,0.000079
2789.061375,0.000058
2790.990186,0.000073
2792.918998,0.000022
2794.847809,-0.000017
2796.776620,0.000039
2798.705432,0.000035
2800.634243,0.000011
2802.563055,0.000064
2804.491866,0.000076
2806.420678,0.000015
2808.349489,-0.000057
2810.278301,-0.000075
2812.207112,0.000035
2814.135924,0.000130
2816.064735,0.000085
2817.993547,0.000076
2819.922358,0.000131
2821.851169,0.000152
2823.779981,0.000219
2825.708792,0.000296
2827.637604,0.000328
2829.566415,0.000355
2831.495227,0.000341
2833.424038,0.000420
2835.352850,0.000598
2837.281661,0.000691
2839.210473,0.000799
2841.139284,0.000981
2843.068096,0.001199
2844.996907,0.001525
2846.925719,0.001895
2848.854530,0.002307
2850.783341,0.002849
2852.712153,0.003434
2854.640964,0.004112
2856.569776,0.005088
2858.498587,0.006310
2860.427399,0.007729
2862.356210,0.009386
2864.285022,0.011295
2866.213833,0.013628
2868.142645,0.016423
2870.071456,0.019592
2872.000268,0.023045
2873.929079,0.026696
2875.857890,0.030674
2877.786702,0.034900
2879.715513,0.039056
2881.644325,0.043056
2883.573136,0.046746
2885.501948,0.049699
2887.430759,0.051843
2889.359571,0.053286
2891.288382,0.053766
2893.217194,0.053010
2895.146005,0.050882
2897.074817,0.047746
2899.003628,0.043901
2900.932439,0.039678
2902.861251,0.034730
2904.790062,0.028114
2906.718874,0.025886
2908.647685,0.035436
2910.576497,0.051716
2912.505308,0.066147
2914.434120,0.076838
2916.362931,0.083085
2918.291743,0.084111
2920.220554,0.080310
2922.149366,0.072532
2924.078177,0.061570
2926.006988,0.048466
2927.935800,0.035195
2929.864611,0.023253
2931.793423,0.013459
2933.722234,0.006413
2935.651046,0.002226
2937.579857,0.000326
2939.508669,-0.000283
2941.437480,-0.000340
2943.366292,-0.000237
2945.295103,0.000009
2947.223915,0.000300
2949.152726,0.000657
2951.081537,0.001144
2953.010349,0.001580
2954.939160,0.001848
2956.867972,0.002113
2958.796783,0.002476
2960.725595,0.002884
2962.654406,0.003278
2964.583218,0.003613
2966.512029,0.003790
2968.440841,0.003783
2970.369652,0.003736
2972.298464,0.003783
2974.227275,0.003965
2976.156086,0.004191
2978.084898,0.004246
2980.013709,0.004104
2981.942521,0.003750
2983.871332,0.003182
2985.800144,0.002692
2987.728955,0.002357
2989.657767,0.002135
2991.586578,0.002003
2993.515390,0.001846
2995.444201,0.001733
2997.373013,0.001695
2999.301824,0.001679
3001.230635,0.001620
3003.159447,0.001591
3005.088258,0.001732
3007.017070,0.001793
3008.945881,0.001705
3010.874693,0.001613
3012.803504,0.001536
3014.732316,0.001557
3016.661127,0.001607
3018.589939,0.001603
3020.518750,0.001520
3022.447562,0.001480
3024.376373,0.001601
3026.305185,0.001661
3028.233996,0.001591
3030.162807,0.001517
3032.091619,0.001497
3034.020430,0.001564
3035.949242,0.001682
3037.878053,0.001820
3039.806865,0.001896
3041.735676,0.001984
3043.664488,0.002133
3045.593299,0.002110
3047.522111,0.001999
3049.450922,0.002071
3051.379734,0.002216
3053.308545,0.002195
3055.237356,0.002154
3057.166168,0.002274
3059.094979,0.002342
3061.023791,0.002316
3062.952602,0.002340
3064.881414,0.002361
3066.810225,0.002409
3068.739037,0.002523
3070.667848,0.002591
3072.596660,0.002590
3074.525471,0.002583
3076.454283,0.002572
3078.383094,0.002543
3080.311905,0.002541
3082.240717,0.002645
3084.169528,0.002832
3086.098340,0.002947
3088.027151,0.002940
3089.955963,0.002947
3091.884774,0.003073
3093.813586,0.003209
3095.742397,0.003265
3097.671209,0.003401
3099.600020,0.003651
3101.528832,0.003875
3103.457643,0.004068
3105.386454,0.004302
3107.315266,0.004606
3109.244077,0.004758
3111.172889,0.004652
3113.101700,0.004566
3115.030512,0.004597
3116.959323,0.004603
3118.888135,0.004440
3120.816946,0.004197
3122.745758,0.004104
3124.674569,0.004055
3126.603381,0.003892
3128.532192,0.003641
3130.461003,0.003367
3132.389815,0.003105
3134.318626,0.002806
3136.247438,0.002557
3138.176249,0.002467
3140.105061,0.002411
3142.033872,0.002277
3143.962684,0.002094
3145.891495,0.001888
3147.820307,0.001776
3149.749118,0.001819
3151.677930,0.001801
3153.606741,0.001753
3155.535552,0.001836
3157.464364,0.001788
3159.393175,0.001616
3161.321987,0.001566
3163.250798,0.001548
3165.179610,0.001566
3167.108421,0.001551
3169.037233,0.001400
3170.966044,0.001416
3172.894856,0.001510
3174.823667,0.001352
3176.752479,0.001132
3178.681290,0.001061
3180.610102,0.001161
3182.538913,0.001231
3184.467724,0.001059
3186.396536,0.000918
3188.325347,0.000982
3190.254159,0.001042
3192.182970,0.000980
3194.111782,0.000878
3196.040593,0.000784
3197.969405,0.000656
3199.898216,0.000646
3201.827028,0.000700
3203.755839,0.000591
3205.684651,0.000489
3207.613462,0.000452
3209.542273,0.000389
3211.471085,0.000386
3213.399896,0.000414
3215.328708,0.000382
3217.257519,0.000202
3219.186331,-0.000002
3221.115142,0.000038
3223.043954,0.000140
3224.972765,0.000080
3226.901577,0.000023
3228.830388,-0.000017
3230.759200,-0.000086
3232.688011,-0.000121
3234.616822,-0.000188
3236.545634,-0.000225
3238.474445,-0.000185
3240.403257,-0.000133
3242.332068,-0.000091
3244.260880,-0.000142
3246.189691,-0.000120
3248.118503,0.000026
3250.047314,0.000033
3251.976126,-0.000065
3253.904937,-0.000166
3255.833749,-0.000194
3257.762560,-0.000135
3259.691371,-0.000129
3261.620183,-0.000121
3263.548994,-0.000083
3265.477806,-0.000151
3267.406617,-0.000221
3269.335429,-0.000173
3271.264240,-0.000057
3273.193052,0.000115
3275.121863,0.000188
3277.050675,0.000078
3278.979486,0.000014
3280.908298,0.000022
3282.837109,0.000029
3284.765920,0.000053
3286.694732,-0.000061
3288.623543,-0.000231
3290.552355,-0.000171
3292.481166,0.000029
3294.409978,0.000157
3296.338789,0.000072
3298.267601,-0.000118
3300.196412,-0.000101
3302.125224,-0.000075
3304.054035,-0.000133
3305.982847,-0.000065
3307.911658,-0.000109
3309.840469,-0.000209
3311.769281,-0.000118
3313.698092,0.000045
3315.626904,0.000222
3317.555715,0.000198
3319.484527,-0.000097
3321.413338,-0.000295
3323.342150,-0.000272
3325.270961,-0.000232
3327.199773,-0.000275
3329.128584,-0.000237
3331.057396,-0.000077
3332.986207,0.000016
3334.915018,0.000034
3336.843830,-0.000010
3338.772641,-0.000094
3340.701453,-0.000133
3342.630264,-0.000139
3344.559076,-0.000012
3346.487887,0.000188
3348.416699,0.000209
3350.345510,0.000139
3352.274322,0.000155
3354.203133,0.000157
3356.131945,0.000131
3358.060756,0.000258
3359.989568,0.000361
3361.918379,0.000244
3363.847190,0.000136
3365.776002,0.000143
3367.704813,0.000269
3369.633625,0.000500
3371.562436,0.000628
3373.491248,0.000556
3375.420059,0.000418
3377.348871,0.000209
3379.277682,0.000123
3381.206494,0.000278
3383.135305,0.000501
3385.064117,0.000518
3386.992928,0.000406
3388.921739,0.000311
3390.850551,0.000229
3392.779362,0.000081
3394.708174,-0.000103
3396.636985,-0.000150
3398.565797,-0.000020
3400.494608,0.000081
3402.423420,0.000019
3404.352231,-0.000067
3406.281043,-0.000135
3408.209854,-0.000197
3410.138666,-0.000162
3412.067477,-0.000053
3413.996288,0.000097
3415.925100,0.000092
3417.853911,-0.000165
3419.782723,-0.000336
3421.711534,-0.000348
3423.640346,-0.000319
3425.569157,-0.000208
3427.497969,-0.000050
3429.426780,0.000180
3431.355592,0.000351
3433.284403,0.000338
3435.213215,0.000356
3437.142026,0.000427
3439.070837,0.000473
3440.999649,0.000418
3442.928460,0.000278
3444.857272,0.000279
3446.786083,0.000303
3448.714895,0.000419
3450.643706,0.000762
3452.572518,0.000777
3454.501329,0.000624
3456.430141,0.000702
3458.358952,0.000567
3460.287764,0.000300
3462.216575,0.000359
3464.145386,0.000435
3466.074198,0.000222
3468.003009,0.000117
3469.931821,0.000320
3471.860632,0.000436
3473.789444,0.000371
3475.718255,0.000369
3477.647067,0.000376
3479.575878,0.000232
3481.504690,0.000039
3483.433501,-0.000008
3485.362313,0.000158
3487.291124,0.000431
3489.219935,0.000628
3491.148747,0.000745
3493.077558,0.000838
3495.006370,0.000806
3496.935181,0.000669
3498.863993,0.000485
3500.792804,0.000179
3502.721616,-0.000019
3504.650427,0.000175
3506.579239,0.000473
3508.508050,0.000567
3510.436862,0.000636
3512.365673,0.000958
3514.294484,0.001405
3516.223296,0.001659
3518.152107,0.001790
3520.080919,0.001806
3522.009730,0.001748
3523.938542,0.002030
3525.867353,0.002602
3527.796165,0.003339
3529.724976,0.004474
3531.653788,0.005835
3533.582599,0.006831
3535.511411,0.007269
3537.440222,0.007576
3539.369034,0.007716
3541.297845,0.007258
3543.226656,0.006465
3545.155468,0.005931
3547.084279,0.006269
3549.013091,0.007454
3550.941902,0.008208
3552.870714,0.008212
3554.799525,0.008513
3556.728337,0.009130
3558.657148,0.009572
3560.585960,0.009720
3562.514771,0.009384
3564.443583,0.008511
3566.372394,0.007523
3568.301205,0.008046
3570.230017,0.010202
3572.158828,0.011435
3574.087640,0.011039
3576.016451,0.010205
3577.945263,0.009497
3579.874074,0.008770
3581.802886,0.007535
3583.731697,0.005811
3585.660509,0.004045
3587.589320,0.003800
3589.518132,0.005673
3591.446943,0.006410
3593.375754,0.005390
3595.304566,0.005488
3597.233377,0.006934
3599.162189,0.008280
3601.091000,0.009186
3603.019812,0.009748
3604.948623,0.009450
3606.877435,0.007729
3608.806246,0.006053
3610.735058,0.005713
3612.663869,0.005485
3614.592681,0.005337
3616.521492,0.005140
3618.450303,0.004106
3620.379115,0.004627
3622.307926,0.006524
3624.236738,0.006670
3626.165549,0.004328
3628.094361,0.000887
3630.023172,0.001344
3631.951984,0.005476
3633.880795,0.007798
3635.809607,0.008714
3637.738418,0.009620
3639.667230,0.009773
3641.596041,0.009350
3643.524852,0.008179
3645.453664,0.005320
3647.382475,0.001534
3649.311287,-0.000100
3651.240098,0.002733
3653.168910,0.006970
3655.097721,0.008242
3657.026533,0.008752
3658.955344,0.011172
3660.884156,0.012685
3662.812967,0.012635
3664.741779,0.011880
3666.670590,0.009856
3668.599401,0.006230
3670.528213,0.003737
3672.457024,0.004244
3674.385836,0.003350
3676.314647,0.003182
3678.243459,0.007608
3680.172270,0.011305
3682.101082,0.012573
3684.029893,0.012497
3685.958705,0.010505
3687.887516,0.007342
3689.816328,0.006357
3691.745139,0.009182
3693.673951,0.012464
3695.602762,0.013735
3697.531573,0.013757
3699.460385,0.013328
3701.389196,0.012567
3703.318008,0.012614
3705.246819,0.012973
3707.175631,0.011548
3709.104442,0.009040
3711.033254,0.007366
3712.962065,0.008418
3714.890877,0.011413
3716.819688,0.012837
3718.748500,0.012606
3720.677311,0.011859
3722.606122,0.011087
3724.534934,0.010826
3726.463745,0.010816
3728.392557,0.010939
3730.321368,0.009615
3732.250180,0.006444
3734.178991,0.004326
3736.107803,0.004760
3738.036614,0.006798
3739.965426,0.008186
3741.894237,0.006484
3743.823049,0.002190
3745.751860,0.000917
3747.680671,0.002623
3749.609483,0.001755
3751.538294,0.001850
3753.467106,0.006044
3755.395917,0.009427
3757.324729,0.010238
3759.253540,0.010146
3761.182352,0.011225
3763.111163,0.012330
3765.039975,0.011693
3766.968786,0.011064
3768.897598,0.010959
3770.826409,0.011646
3772.755220,0.013407
3774.684032,0.014151
3776.612843,0.013547
3778.541655,0.012515
3780.470466,0.012240
3782.399278,0.013162
3784.328089,0.013680
3786.256901,0.013868
3788.185712,0.014424
3790.114524,0.014356
3792.043335,0.013802
3793.972147,0.012856
3795.900958,0.010712
3797.829769,0.009235
3799.758581,0.008063
3801.687392,0.006198
3803.616204,0.007375
3805.545015,0.009005
3807.473827,0.009292
3809.402638,0.011254
3811.331450,0.012476
3813.260261,0.011147
3815.189073,0.008070
3817.117884,0.006128
3819.046696,0.006260
3820.975507,0.005571
3822.904318,0.007216
3824.833130,0.010370
3826.761941,0.010938
3828.690753,0.010863
3830.619564,0.010066
3832.548376,0.008203
3834.477187,0.007018
3836.405999,0.005591
3838.334810,0.004554
3840.263622,0.006037
3842.192433,0.008412
3844.121245,0.010053
3846.050056,0.011169
3847.978867,0.010553
3849.907679,0.007322
3851.836490,0.002550
3853.765302,-0.000123
3855.694113,0.003638
3857.622925,0.008736
3859.551736,0.009744
3861.480548,0.008492
3863.409359,0.007027
3865.338171,0.006321
3867.266982,0.006398
3869.195794,0.005305
3871.124605,0.005259
3873.053417,0.007285
3874.982228,0.008245
3876.911039,0.008699
3878.839851,0.007963
3880.768662,0.006128
3882.697474,0.006269
3884.626285,0.006008
3886.555097,0.005368
3888.483908,0.006550
3890.412720,0.006485
3892.341531,0.005880
3894.270343,0.006820
3896.199154,0.006704
3898.127966,0.004495
3900.056777,0.002199
3901.985588,0.001391
3903.914400,0.002029
3905.843211,0.004117
3907.772023,0.006558
3909.700834,0.007397
3911.629646,0.007184
3913.558457,0.006737
3915.487269,0.005562
3917.416080,0.004501
3919.344892,0.004534
3921.273703,0.004925
3923.202515,0.004763
3925.131326,0.004371
3927.060137,0.004288
3928.988949,0.004081
3930.917760,0.003533
3932.846572,0.003405
3934.775383,0.004056
3936.704195,0.004607
3938.633006,0.004383
3940.561818,0.003563
3942.490629,0.002817
3944.419441,0.002850
3946.348252,0.002983
3948.277064,0.002591
3950.205875,0.002434
3952.134686,0.002539
3954.063498,0.002474
3955.992309,0.002393
3957.921121,0.002248
3959.849932,0.001915
3961.778744,0.001665
3963.707555,0.001652
3965.636367,0.001576
3967.565178,0.001266
3969.493990,0.000943
3971.422801,0.000789
3973.351613,0.000632
3975.280424,0.000382
3977.209235,0.000268
3979.138047,0.000417
3981.066858,0.000474
3982.995670,0.000531
3984.924481,0.000502
3986.853293,0.000417
3988.782104,0.000379
3990.710916,0.000374
3992.639727,0.000341
3994.568539,0.000306
3996.497350,0.000348
3998.426162,0.000398
4000.354973,0.000430
