XLabel,Wavenumber
YLabel,Absorbance
FileType,Absorbance
DisplayDirection,20300
PeakDirection,20312
898.826141,0.001806
900.754953,0.000348
902.683764,-0.001130
904.612576,-0.001535
906.541387,-0.000071
908.470199,0.000221
910.399010,-0.000472
912.327822,-0.000978
914.256633,-0.000945
916.185445,0.000156
918.114256,0.000428
920.043068,-0.000433
921.971879,-0.000177
923.900690,0.000493
925.829502,0.000193
927.758313,0.000212
929.687125,0.001211
931.615936,0.001196
933.544748,0.000702
935.473559,0.000488
937.402371,0.000178
939.331182,-0.000073
941.259994,0.000175
943.188805,0.000476
945.117617,0.000640
947.046428,0.000380
948.975240,-0.000050
950.904051,0.000055
952.832862,0.000292
954.761674,0.000371
956.690485,0.000328
958.619297,0.000156
960.548108,0.000063
962.476920,0.000023
964.405731,0.000069
966.334543,0.000067
968.263354,-0.000149
970.192166,-0.000194
972.120977,0.000157
974.049789,0.000363
975.978600,0.000005
977.907411,-0.000268
979.836223,-0.000233
981.765034,-0.000339
983.693846,-0.000416
985.622657,-0.000298
987.551469,-0.000124
989.480280,-0.000074
991.409092,-0.000156
993.337903,-0.000130
995.266715,-0.000183
997.195526,-0.000367
999.124338,-0.000398
1001.053149,-0.000324
1002.981960,-0.000194
1004.910772,-0.000032
1006.839583,-0.000020
1008.768395,-0.000155
1010.697206,-0.000224
1012.626018,-0.000171
1014.554829,-0.000074
1016.483641,0.000030
1018.412452,0.000068
1020.341264,0.000102
1022.270075,0.000198
1024.198887,0.000192
1026.127698,0.000131
1028.056509,0.000238
1029.985321,0.000443
1031.914132,0.000633
1033.842944,0.000852
1035.771755,0.001056
1037.700567,0.001148
1039.629378,0.001115
1041.558190,0.001076
1043.487001,0.001046
1045.415813,0.000923
1047.344624,0.000782
1049.273436,0.000700
1051.202247,0.000646
1053.131058,0.000598
1055.059870,0.000555
1056.988681,0.000489
1058.917493,0.000297
1060.846304,0.000075
1062.775116,0.000002
1064.703927,0.000034
1066.632739,-0.000033
1068.561550,-0.000094
1070.490362,0.000014
1072.419173,0.000088
1074.347985,0.000022
1076.276796,0.000015
1078.205607,0.000058
1080.134419,0.000092
1082.063230,0.000071
1083.992042,-0.000017
1085.920853,-0.000012
1087.849665,0.000105
1089.778476,0.000164
1091.707288,0.000059
1093.636099,-0.000051
1095.564911,-0.000032
1097.493722,0.000050
1099.422534,0.000162
1101.351345,0.000190
1103.280156,0.000147
1105.208968,0.000146
1107.137779,0.000085
1109.066591,0.000028
1110.995402,0.000087
1112.924214,0.000095
1114.853025,0.000035
1116.781837,0.000062
1118.710648,0.000084
1120.639460,-0.000015
1122.568271,-0.000079
1124.497083,-0.000029
1126.425894,-0.000014
1128.354706,-0.000075
1130.283517,-0.000085
1132.212328,-0.000100
1134.141140,-0.000229
1136.069951,-0.000242
1137.998763,-0.000095
1139.927574,-0.000074
1141.856386,-0.000088
1143.785197,-0.000044
1145.714009,0.000013
1147.642820,0.000065
1149.571632,0.000164
1151.500443,0.000293
1153.429255,0.000400
1155.358066,0.000476
1157.286877,0.000546
1159.215689,0.000682
1161.144500,0.000852
1163.073312,0.000925
1165.002123,0.000982
1166.930935,0.001103
1168.859746,0.001188
1170.788558,0.001307
1172.717369,0.001477
1174.646181,0.001603
1176.574992,0.001749
1178.503804,0.001929
1180.432615,0.002076
1182.361426,0.002161
1184.290238,0.002243
1186.219049,0.002432
1188.147861,0.002672
1190.076672,0.002906
1192.005484,0.003145
1193.934295,0.003268
1195.863107,0.003270
1197.791918,0.003254
1199.720730,0.003188
1201.649541,0.003254
1203.578353,0.003540
1205.507164,0.003630
1207.435975,0.003535
1209.364787,0.003660
1211.293598,0.003953
1213.222410,0.004253
1215.151221,0.004652
1217.080033,0.005033
1219.008844,0.005256
1220.937656,0.005693
1222.866467,0.006190
1224.795279,0.006473
1226.724090,0.007124
1228.652902,0.008063
1230.581713,0.009067
1232.510524,0.010418
1234.439336,0.012101
1236.368147,0.014673
1238.296959,0.018670
1240.225770,0.024215
1242.154582,0.032290
1244.083393,0.043892
1246.012205,0.058946
1247.941016,0.076555
1249.869828,0.094348
1251.798639,0.108520
1253.727451,0.115351
1255.656262,0.114032
1257.585073,0.113963
1259.513885,0.124865
1261.442696,0.133753
1263.371508,0.124880
1265.300319,0.113379
1267.229131,0.116172
1269.157942,0.125504
1271.086754,0.125954
1273.015565,0.112077
1274.944377,0.089069
1276.873188,0.066189
1278.802000,0.049521
1280.730811,0.039635
1282.659622,0.033985
1284.588434,0.030613
1286.517245,0.028929
1288.446057,0.027984
1290.374868,0.027411
1292.303680,0.027280
1294.232491,0.027211
1296.161303,0.027331
1298.090114,0.027950
1300.018926,0.029116
1301.947737,0.030147
1303.876549,0.030967
1305.805360,0.031909
1307.734172,0.032635
1309.662983,0.033481
1311.591794,0.033904
1313.520606,0.033596
1315.449417,0.032565
1317.378229,0.030565
1319.307040,0.028118
1321.235852,0.025710
1323.164663,0.027151
1325.093475,0.029380
1327.022286,0.024303
1328.951098,0.019050
1330.879909,0.018921
1332.808721,0.018814
1334.737532,0.018778
1336.666343,0.018694
1338.595155,0.017707
1340.523966,0.017595
1342.452778,0.017123
1344.381589,0.014951
1346.310401,0.012146
1348.239212,0.009606
1350.168024,0.007540
1352.096835,0.005910
1354.025647,0.004605
1355.954458,0.003846
1357.883270,0.003327
1359.812081,0.001799
1361.740892,0.000065
1363.669704,0.000807
1365.598515,0.002838
1367.527327,0.003157
1369.456138,0.003360
1371.384950,0.003346
1373.313761,0.001915
1375.242573,0.002096
1377.171384,0.003838
1379.100196,0.004578
1381.029007,0.004901
1382.957819,0.005166
1384.886630,0.003946
1386.815441,0.001970
1388.744253,0.002862
1390.673064,0.004739
1392.601876,0.002819
1394.530687,0.000345
1396.459499,0.000821
1398.388310,0.001279
1400.317122,0.003105
1402.245933,0.005138
1404.174745,0.004574
1406.103556,0.005105
1408.032368,0.006809
1409.961179,0.007443
1411.889990,0.007750
1413.818802,0.008166
1415.747613,0.006977
1417.676425,0.002592
1419.605236,0.002041
1421.534048,0.007026
1423.462859,0.009385
1425.391671,0.010635
1427.320482,0.011756
1429.249294,0.010756
1431.178105,0.011574
1433.106917,0.012772
1435.035728,0.008867
1436.964539,0.007068
1438.893351,0.012864
1440.822162,0.016465
1442.750974,0.017042
1444.679785,0.017191
1446.608597,0.015781
1448.537408,0.015794
1450.466220,0.017523
1452.395031,0.017751
1454.323843,0.013351
1456.252654,0.004864
1458.181466,0.006632
1460.110277,0.016588
1462.039089,0.019703
1463.967900,0.017263
1465.896711,0.018198
1467.825523,0.021971
1469.754334,0.019955
1471.683146,0.013460
1473.611957,0.013065
1475.540769,0.017741
1477.469580,0.021838
1479.398392,0.024088
1481.327203,0.024691
1483.256015,0.025037
1485.184826,0.023676
1487.113638,0.019950
1489.042449,0.016904
1490.971260,0.018800
1492.900072,0.022372
1494.828883,0.020063
1496.757695,0.015993
1498.686506,0.017506
1500.615318,0.020817
1502.544129,0.020914
1504.472941,0.012176
1506.401752,0.001322
1508.330564,0.006840
1510.259375,0.014790
1512.188187,0.017265
1514.116998,0.016556
1516.045809,0.013252
1517.974621,0.011138
1519.903432,0.007899
1521.832244,0.005991
1523.761055,0.010562
1525.689867,0.013372
1527.618678,0.015409
1529.547490,0.018616
1531.476301,0.016482
1533.405113,0.013166
1535.333924,0.015941
1537.262736,0.013063
1539.191547,0.001354
1541.120358,0.000503
1543.049170,0.008427
1544.977981,0.015117
1546.906793,0.020368
1548.835604,0.021977
1550.764416,0.022660
1552.693227,0.022473
1554.622039,0.021370
1556.550850,0.016887
1558.479662,0.010501
1560.408473,0.025506
1562.337285,0.046011
1564.266096,0.058035
1566.194907,0.070208
1568.123719,0.082450
1570.052530,0.101524
1571.981342,0.130570
1573.910153,0.156408
1575.838965,0.189154
1577.767776,0.238793
1579.696588,0.291043
1581.625399,0.345619
1583.554211,0.402341
1585.483022,0.462064
1587.411834,0.527362
1589.340645,0.598279
1591.269456,0.673133
1593.198268,0.738666
1595.127079,0.781499
1597.055891,0.798348
1598.984702,0.799492
1600.913514,0.782449
1602.842325,0.757357
1604.771137,0.738447
1606.699948,0.714943
1608.628760,0.685358
1610.557571,0.633612
1612.486383,0.570432
1614.415194,0.497783
1616.344005,0.432284
1618.272817,0.495749
1620.201628,0.690055
1622.130440,0.886994
1624.059251,1.003297
1625.988063,1.080820
1627.916874,1.126162
1629.845686,1.113167
1631.774497,1.025811
1633.703309,0.897715
1635.632120,0.741929
1637.560932,0.613279
1639.489743,0.511271
1641.418555,0.404926
1643.347366,0.306480
1645.276177,0.217061
1647.204989,0.137725
1649.133800,0.088969
1651.062612,0.049475
1652.991423,0.010762
1654.920235,0.005674
1656.849046,0.011025
1658.777858,0.009305
1660.706669,0.005243
1662.635481,0.002304
1664.564292,0.004338
1666.493104,0.004968
1668.421915,-0.000142
1670.350726,0.000429
1672.279538,0.004916
1674.208349,0.005144
1676.137161,0.008529
1678.065972,0.015504
1679.994784,0.018512
1681.923595,0.015741
1683.852407,0.012254
1685.781218,0.021135
1687.710030,0.031189
1689.638841,0.034369
1691.567653,0.037253
1693.496464,0.034194
1695.425275,0.029558
1697.354087,0.034261
1699.282898,0.031954
1701.211710,0.028234
1703.140521,0.034562
1705.069333,0.038319
1706.998144,0.040835
1708.926956,0.048040
1710.855767,0.057069
1712.784579,0.059371
1714.713390,0.054256
1716.642202,0.051624
1718.571013,0.057816
1720.499824,0.067983
1722.428636,0.073687
1724.357447,0.076382
1726.286259,0.079140
1728.215070,0.080711
1730.143882,0.083219
1732.072693,0.083648
1734.001505,0.088255
1735.930316,0.105369
1737.859128,0.118025
1739.787939,0.124668
1741.716751,0.131523
1743.645562,0.134879
1745.574373,0.133028
1747.503185,0.128505
1749.431996,0.123844
1751.360808,0.124373
1753.289619,0.129068
1755.218431,0.129622
1757.147242,0.126452
1759.076054,0.119820
1761.004865,0.104233
1762.933677,0.085991
1764.862488,0.071288
1766.791300,0.054579
1768.720111,0.039072
1770.648922,0.026484
1772.577734,0.017620
1774.506545,0.017091
1776.435357,0.017705
1778.364168,0.015842
1780.292980,0.014410
1782.221791,0.014565
1784.150603,0.014908
1786.079414,0.015652
1788.008226,0.016676
1789.937037,0.014003
1791.865849,0.009810
1793.794660,0.010654
1795.723471,0.013149
1797.652283,0.012644
1799.581094,0.010298
1801.509906,0.009772
1803.438717,0.011768
1805.367529,0.013231
1807.296340,0.012951
1809.225152,0.011586
1811.153963,0.010623
1813.082775,0.010835
1815.011586,0.010630
1816.940398,0.009693
1818.869209,0.009007
1820.798021,0.008530
1822.726832,0.006800
1824.655643,0.004803
1826.584455,0.004494
1828.513266,0.003328
1830.442078,0.002963
1832.370889,0.005641
1834.299701,0.007118
1836.228512,0.006848
1838.157324,0.006994
1840.086135,0.007065
1842.014947,0.004618
1843.943758,0.001664
1845.872570,0.003394
1847.801381,0.006145
1849.730192,0.006932
1851.659004,0.007320
1853.587815,0.007253
1855.516627,0.007000
1857.445438,0.006701
1859.374250,0.006355
1861.303061,0.006096
1863.231873,0.005636
1865.160684,0.004316
1867.089496,0.001448
1869.018307,-0.000068
1870.947119,0.001743
1872.875930,0.004042
1874.804741,0.005295
1876.733553,0.004907
1878.662364,0.003758
1880.591176,0.003803
1882.519987,0.004215
1884.448799,0.004554
1886.377610,0.004853
1888.306422,0.004250
1890.235233,0.004469
1892.164045,0.005787
1894.092856,0.006165
1896.021668,0.006350
1897.950479,0.006976
1899.879290,0.007261
1901.808102,0.007220
1903.736913,0.007161
1905.665725,0.006955
1907.594536,0.006390
1909.523348,0.005990
1911.452159,0.006128
1913.380971,0.006292
1915.309782,0.005215
1917.238594,0.003374
1919.167405,0.003324
1921.096217,0.003840
1923.025028,0.003469
1924.953839,0.003743
1926.882651,0.004056
1928.811462,0.003768
1930.740274,0.003471
1932.669085,0.003162
1934.597897,0.002887
1936.526708,0.002639
1938.455520,0.002364
1940.384331,0.001363
1942.313143,0.000258
1944.241954,0.000596
1946.170766,0.001293
1948.099577,0.001437
1950.028388,0.001473
1951.957200,0.001360
1953.886011,0.001217
1955.814823,0.001231
1957.743634,0.001311
1959.672446,0.001265
1961.601257,0.001208
1963.530069,0.001117
1965.458880,0.000650
1967.387692,0.000406
1969.316503,0.000848
1971.245315,0.001216
1973.174126,0.001233
1975.102938,0.001170
1977.031749,0.001115
1978.960560,0.001157
1980.889372,0.001152
1982.818183,0.001081
1984.746995,0.000983
1986.675806,0.000800
1988.604618,0.000614
1990.533429,0.000272
1992.462241,0.000190
1994.391052,0.000662
1996.319864,0.000896
1998.248675,0.000874
2000.177487,0.000958
2002.106298,0.000961
2004.035109,0.000926
2005.963921,0.000896
2007.892732,0.000848
2009.821544,0.000847
2011.750355,0.000898
2013.679167,0.000814
2015.607978,0.000454
2017.536790,0.000273
2019.465601,0.000496
2021.394413,0.000693
2023.323224,0.000731
2025.252036,0.000747
2027.180847,0.000765
2029.109658,0.000714
2031.038470,0.000641
2032.967281,0.000681
2034.896093,0.000733
2036.824904,0.000715
2038.753716,0.000643
2040.682527,0.000551
2042.611339,0.000558
2044.540150,0.000616
2046.468962,0.000659
2048.397773,0.000712
2050.326585,0.000693
2052.255396,0.000634
2054.184207,0.000678
2056.113019,0.000718
2058.041830,0.000601
2059.970642,0.000532
2061.899453,0.000522
2063.828265,0.000355
2065.757076,0.000291
2067.685888,0.000445
2069.614699,0.000554
2071.543511,0.000603
2073.472322,0.000620
2075.401134,0.000604
2077.329945,0.000575
2079.258756,0.000566
2081.187568,0.000619
2083.116379,0.000626
2085.045191,0.000612
2086.974002,0.000636
2088.902814,0.000579
2090.831625,0.000526
2092.760437,0.000576
2094.689248,0.000625
2096.618060,0.000620
2098.546871,0.000598
2100.475683,0.000598
2102.404494,0.000628
2104.333305,0.000660
2106.262117,0.000621
2108.190928,0.000563
2110.119740,0.000608
2112.048551,0.000654
2113.977363,0.000666
2115.906174,0.000712
2117.834986,0.000725
2119.763797,0.000738
2121.692609,0.000720
2123.621420,0.000633
2125.550232,0.000613
2127.479043,0.000621
2129.407854,0.000597
2131.336666,0.000578
2133.265477,0.000541
2135.194289,0.000477
2137.123100,0.000434
2139.051912,0.000480
2140.980723,0.000492
2142.909535,0.000409
2144.838346,0.000365
2146.767158,0.000365
2148.695969,0.000402
2150.624781,0.000476
2152.553592,0.000535
2154.482404,0.000605
2156.411215,0.000655
2158.340026,0.000647
2160.268838,0.000638
2162.197649,0.000667
2164.126461,0.000714
2166.055272,0.000717
2167.984084,0.000693
2169.912895,0.000718
2171.841707,0.000794
2173.770518,0.000864
2175.699330,0.000919
2177.628141,0.000994
2179.556953,0.001072
2181.485764,0.001155
2183.414575,0.001275
2185.343387,0.001378
2187.272198,0.001464
2189.201010,0.001543
2191.129821,0.001659
2193.058633,0.001912
2194.987444,0.002178
2196.916256,0.002416
2198.845067,0.002724
2200.773879,0.002995
2202.702690,0.003172
2204.631502,0.003341
2206.560313,0.003507
2208.489124,0.003624
2210.417936,0.003637
2212.346747,0.003560
2214.275559,0.003451
2216.204370,0.003237
2218.133182,0.002813
2220.061993,0.002227
2221.990805,0.001654
2223.919616,0.001510
2225.848428,0.002008
2227.777239,0.002769
2229.706051,0.003435
2231.634862,0.003974
2233.563673,0.004411
2235.492485,0.004691
2237.421296,0.004749
2239.350108,0.004588
2241.278919,0.004202
2243.207731,0.003646
2245.136542,0.003033
2247.065354,0.002427
2248.994165,0.001844
2250.922977,0.001339
2252.851788,0.000942
2254.780600,0.000606
2256.709411,0.000451
2258.638222,0.000456
2260.567034,0.000411
2262.495845,0.000394
2264.424657,0.000423
2266.353468,0.000407
2268.282280,0.000397
2270.211091,0.000397
2272.139903,0.000401
2274.068714,0.000394
2275.997526,0.000360
2277.926337,0.000347
2279.855149,0.000374
2281.783960,0.000419
2283.712771,0.000408
2285.641583,0.000397
2287.570394,0.000477
2289.499206,0.000504
2291.428017,0.000427
2293.356829,0.000390
2295.285640,0.000419
2297.214452,0.000493
2299.143263,0.000582
2301.072075,0.000620
2303.000886,0.000650
2304.929698,0.000723
2306.858509,0.000805
2308.787320,0.000859
2310.716132,0.000912
2312.644943,0.000973
2314.573755,0.000991
2316.502566,0.001015
2318.431378,0.001057
2320.360189,0.001058
2322.289001,0.001051
2324.217812,0.001021
2326.146624,0.001008
2328.075435,0.001050
2330.004247,0.001050
2331.933058,0.001003
2333.861870,0.000980
2335.790681,0.000964
2337.719492,0.000922
2339.648304,0.000852
2341.577115,0.000781
2343.505927,0.000808
2345.434738,0.000838
2347.363550,0.000749
2349.292361,0.000734
2351.221173,0.000793
2353.149984,0.000800
2355.078796,0.000846
2357.007607,0.000861
2358.936419,0.000819
2360.865230,0.000810
2362.794041,0.000822
2364.722853,0.000868
2366.651664,0.000870
2368.580476,0.000854
2370.509287,0.000799
2372.438099,0.000656
2374.366910,0.000675
2376.295722,0.000793
2378.224533,0.000717
2380.153345,0.000543
2382.082156,0.000461
2384.010968,0.000424
2385.939779,0.000332
2387.868590,0.000266
2389.797402,0.000231
2391.726213,0.000133
2393.655025,0.000064
2395.583836,0.000097
2397.512648,0.000129
2399.441459,0.000119
2401.370271,0.000198
2403.299082,0.000347
2405.227894,0.000328
2407.156705,0.000204
2409.085517,0.000213
2411.014328,0.000298
2412.943139,0.000343
2414.871951,0.000340
2416.800762,0.000261
2418.729574,0.000197
2420.658385,0.000237
2422.587197,0.000244
2424.516008,0.000181
2426.444820,0.000159
2428.373631,0.000214
2430.302443,0.000265
2432.231254,0.000264
2434.160066,0.000255
2436.088877,0.000211
2438.017688,0.000163
2439.946500,0.000193
2441.875311,0.000239
2443.804123,0.000191
2445.732934,0.000132
2447.661746,0.000175
2449.590557,0.000197
2451.519369,0.000221
2453.448180,0.000294
2455.376992,0.000290
2457.305803,0.000286
2459.234615,0.000290
2461.163426,0.000273
2463.092237,0.000297
2465.021049,0.000328
2466.949860,0.000374
2468.878672,0.000402
2470.807483,0.000417
2472.736295,0.000474
2474.665106,0.000535
2476.593918,0.000552
2478.522729,0.000545
2480.451541,0.000528
2482.380352,0.000455
2484.309164,0.000457
2486.237975,0.000579
2488.166786,0.000586
2490.095598,0.000535
2492.024409,0.000559
2493.953221,0.000571
2495.882032,0.000559
2497.810844,0.000571
2499.739655,0.000600
2501.668467,0.000611
2503.597278,0.000645
2505.526090,0.000708
2507.454901,0.000716
2509.383713,0.000723
2511.312524,0.000736
2513.241336,0.000648
2515.170147,0.000548
2517.098958,0.000525
2519.027770,0.000466
2520.956581,0.000370
2522.885393,0.000349
2524.814204,0.000403
2526.743016,0.000457
2528.671827,0.000468
2530.600639,0.000430
2532.529450,0.000352
2534.458262,0.000322
2536.387073,0.000376
2538.315885,0.000336
2540.244696,0.000221
2542.173507,0.000269
2544.102319,0.000381
2546.031130,0.000397
2547.959942,0.000374
2549.888753,0.000323
2551.817565,0.000330
2553.746376,0.000397
2555.675188,0.000371
2557.603999,0.000345
2559.532811,0.000399
2561.461622,0.000453
2563.390434,0.000478
2565.319245,0.000438
2567.248056,0.000406
2569.176868,0.000468
2571.105679,0.000546
2573.034491,0.000583
2574.963302,0.000588
2576.892114,0.000640
2578.820925,0.000749
2580.749737,0.000765
2582.678548,0.000681
2584.607360,0.000634
2586.536171,0.000669
2588.464983,0.000752
2590.393794,0.000781
2592.322605,0.000673
2594.251417,0.000519
2596.180228,0.000417
2598.109040,0.000370
2600.037851,0.000383
2601.966663,0.000430
2603.895474,0.000482
2605.824286,0.000499
2607.753097,0.000528
2609.681909,0.000640
2611.610720,0.000703
2613.539532,0.000786
2615.468343,0.001040
2617.397154,0.001250
2619.325966,0.001326
2621.254777,0.001418
2623.183589,0.001543
2625.112400,0.001616
2627.041212,0.001614
2628.970023,0.001613
2630.898835,0.001620
2632.827646,0.001602
2634.756458,0.001633
2636.685269,0.001679
2638.614081,0.001591
2640.542892,0.001365
2642.471703,0.001029
2644.400515,0.000656
2646.329326,0.000431
2648.258138,0.000312
2650.186949,0.000202
2652.115761,0.000169
2654.044572,0.000153
2655.973384,0.000086
2657.902195,0.000019
2659.831007,-0.000011
2661.759818,-0.000033
2663.688630,-0.000071
2665.617441,-0.000103
2667.546253,-0.000186
2669.475064,-0.000270
2671.403875,-0.000237
2673.332687,-0.000233
2675.261498,-0.000240
2677.190310,-0.000205
2679.119121,-0.000231
2681.047933,-0.000223
2682.976744,-0.000163
2684.905556,-0.000134
2686.834367,-0.000147
2688.763179,-0.000229
2690.691990,-0.000272
2692.620802,-0.000236
2694.549613,-0.000215
2696.478424,-0.000182
2698.407236,-0.000139
2700.336047,-0.000114
2702.264859,-0.000098
2704.193670,-0.000129
2706.122482,-0.000166
2708.051293,-0.000196
2709.980105,-0.000223
2711.908916,-0.000177
2713.837728,-0.000157
2715.766539,-0.000188
2717.695351,-0.000185
2719.624162,-0.000208
2721.552973,-0.000221
2723.481785,-0.000174
2725.410596,-0.000160
2727.339408,-0.000237
2729.268219,-0.000300
2731.197031,-0.000230
2733.125842,-0.000167
2735.054654,-0.000153
2736.983465,-0.000096
2738.912277,-0.000127
2740.841088,-0.000201
2742.769900,-0.000155
2744.698711,-0.000128
2746.627522,-0.000204
2748.556334,-0.000271
2750.485145,-0.000306
2752.413957,-0.000262
2754.342768,-0.000140
2756.271580,-0.000131
2758.200391,-0.000178
2760.129203,-0.000171
2762.058014,-0.000178
2763.986826,-0.000129
2765.915637,-0.000085
2767.844449,-0.000164
2769.773260,-0.000239
2771.702071,-0.000261
2773.630883,-0.000246
2775.559694,-0.000194
2777.488506,-0.000204
2779.417317,-0.000271
2781.346129,-0.000297
2783.274940,-0.000287
2785.203752,-0.000292
2787.132563,-0.000333
2789.061375,-0.000324
2790.990186,-0.000200
2792.918998,-0.000140
2794.847809,-0.000200
2796.776620,-0.000224
2798.705432,-0.000212
2800.634243,-0.000197
2802.563055,-0.000196
2804.491866,-0.000253
2806.420678,-0.000279
2808.349489,-0.000303
2810.278301,-0.000377
2812.207112,-0.000294
2814.135924,-0.000147
2816.064735,-0.000187
2817.993547,-0.000235
2819.922358,-0.000202
2821.851169,-0.000171
2823.779981,-0.000114
2825.708792,-0.000068
2827.637604,-0.000046
2829.566415,0.000005
2831.495227,0.000052
2833.424038,0.000101
2835.352850,0.000226
2837.281661,0.000388
2839.210473,0.000508
2841.139284,0.000650
2843.068096,0.000877
2844.996907,0.001131
2846.925719,0.001409
2848.854530,0.001803
2850.783341,0.002295
2852.712153,0.002840
2854.640964,0.003479
2856.569776,0.004306
2858.498587,0.005373
2860.427399,0.006610
2862.356210,0.008102
2864.285022,0.009985
2866.213833,0.012167
2868.142645,0.014643
2870.071456,0.017428
2872.000268,0.020481
2873.929079,0.023944
2875.857890,0.027691
2877.786702,0.031404
2879.715513,0.035192
2881.644325,0.038981
2883.573136,0.042283
2885.501948,0.044906
2887.430759,0.046899
2889.359571,0.048191
2891.288382,0.048672
2893.217194,0.048064
2895.146005,0.046105
2897.074817,0.043200
2899.003628,0.039609
2900.932439,0.035722
2902.861251,0.031324
2904.790062,0.025404
2906.718874,0.023391
2908.647685,0.032077
2910.576497,0.046876
2912.505308,0.060051
2914.434120,0.069837
2916.362931,0.075454
2918.291743,0.076349
2920.220554,0.072902
2922.149366,0.065721
2924.078177,0.055661
2926.006988,0.043742
2927.935800,0.031639
2929.864611,0.020736
2931.793423,0.011892
2933.722234,0.005572
2935.651046,0.001728
2937.579857,-0.000021
2939.508669,-0.000472
2941.437480,-0.000495
2943.366292,-0.000525
2945.295103,-0.000358
2947.223915,-0.000050
2949.152726,0.000243
2951.081537,0.000573
2953.010349,0.000870
2954.939160,0.001103
2956.867972,0.001422
2958.796783,0.001779
2960.725595,0.002056
2962.654406,0.002321
2964.583218,0.002630
2966.512029,0.002839
2968.440841,0.002868
2970.369652,0.002836
2972.298464,0.002895
2974.227275,0.003087
2976.156086,0.003274
2978.084898,0.003357
2980.013709,0.003313
2981.942521,0.003059
2983.871332,0.002638
2985.800144,0.002192
2987.728955,0.001850
2989.657767,0.001699
2991.586578,0.001600
2993.515390,0.001471
2995.444201,0.001382
2997.373013,0.001332
2999.301824,0.001315
3001.230635,0.001276
3003.159447,0.001240
3005.088258,0.001327
3007.017070,0.001440
3008.945881,0.001397
3010.874693,0.001223
3012.803504,0.001113
3014.732316,0.001180
3016.661127,0.001341
3018.589939,0.001380
3020.518750,0.001248
3022.447562,0.001212
3024.376373,0.001306
3026.305185,0.001320
3028.233996,0.001287
3030.162807,0.001213
3032.091619,0.001145
3034.020430,0.001282
3035.949242,0.001472
3037.878053,0.001565
3039.806865,0.001634
3041.735676,0.001665
3043.664488,0.001743
3045.593299,0.001824
3047.522111,0.001770
3049.450922,0.001787
3051.379734,0.001935
3053.308545,0.001931
3055.237356,0.001850
3057.166168,0.002023
3059.094979,0.002206
3061.023791,0.002176
3062.952602,0.002144
3064.881414,0.002007
3066.810225,0.001905
3068.739037,0.002089
3070.667848,0.002175
3072.596660,0.002131
3074.525471,0.002201
3076.454283,0.002254
3078.383094,0.002222
3080.311905,0.002184
3082.240717,0.002288
3084.169528,0.002500
3086.098340,0.002608
3088.027151,0.002626
3089.955963,0.002635
3091.884774,0.002715
3093.813586,0.002813
3095.742397,0.002786
3097.671209,0.002828
3099.600020,0.003042
3101.528832,0.003297
3103.457643,0.003564
3105.386454,0.003794
3107.315266,0.003929
3109.244077,0.003950
3111.172889,0.003954
3113.101700,0.003949
3115.030512,0.003805
3116.959323,0.003696
3118.888135,0.003707
3120.816946,0.003620
3122.745758,0.003479
3124.674569,0.003415
3126.603381,0.003345
3128.532192,0.003131
3130.461003,0.002809
3132.389815,0.002586
3134.318626,0.002473
3136.247438,0.002322
3138.176249,0.002187
3140.105061,0.002101
3142.033872,0.001962
3143.962684,0.001804
3145.891495,0.001704
3147.820307,0.001656
3149.749118,0.001569
3151.677930,0.001465
3153.606741,0.001540
3155.535552,0.001681
3157.464364,0.001615
3159.393175,0.001452
3161.321987,0.001373
3163.250798,0.001283
3165.179610,0.001222
3167.108421,0.001273
3169.037233,0.001225
3170.966044,0.001208
3172.894856,0.001297
3174.823667,0.001151
3176.752479,0.000933
3178.681290,0.000803
3180.610102,0.000705
3182.538913,0.000714
3184.467724,0.000666
3186.396536,0.000665
3188.325347,0.000801
3190.254159,0.000736
3192.182970,0.000537
3194.111782,0.000457
3196.040593,0.000436
3197.969405,0.000418
3199.898216,0.000478
3201.827028,0.000468
3203.755839,0.000307
3205.684651,0.000262
3207.613462,0.000231
3209.542273,0.000097
3211.471085,0.000091
3213.399896,0.000119
3215.328708,-0.000007
3217.257519,-0.000224
3219.186331,-0.000315
3221.115142,-0.000236
3223.043954,-0.000207
3224.972765,-0.000229
3226.901577,-0.000275
3228.830388,-0.000427
3230.759200,-0.000500
3232.688011,-0.000438
3234.616822,-0.000441
3236.545634,-0.000466
3238.474445,-0.000413
3240.403257,-0.000341
3242.332068,-0.000342
3244.260880,-0.000427
3246.189691,-0.000387
3248.118503,-0.000282
3250.047314,-0.000366
3251.976126,-0.000464
3253.904937,-0.000439
3255.833749,-0.000377
3257.762560,-0.000375
3259.691371,-0.000459
3261.620183,-0.000441
3263.548994,-0.000283
3265.477806,-0.000198
3267.406617,-0.000252
3269.335429,-0.000284
3271.264240,-0.000240
3273.193052,-0.000194
3275.121863,-0.000168
3277.050675,-0.000164
3278.979486,-0.000096
3280.908298,-0.000035
3282.837109,-0.000127
3284.765920,-0.000250
3286.694732,-0.000328
3288.623543,-0.000406
3290.552355,-0.000433
3292.481166,-0.000343
3294.409978,-0.000199
3296.338789,-0.000183
3298.267601,-0.000281
3300.196412,-0.000288
3302.125224,-0.000262
3304.054035,-0.000297
3305.982847,-0.000284
3307.911658,-0.000333
3309.840469,-0.000370
3311.769281,-0.000247
3313.698092,-0.000232
3315.626904,-0.000257
3317.555715,-0.000306
3319.484527,-0.000504
3321.413338,-0.000511
3323.342150,-0.000314
3325.270961,-0.000210
3327.199773,-0.000362
3329.128584,-0.000560
3331.057396,-0.000466
3332.986207,-0.000323
3334.915018,-0.000322
3336.843830,-0.000375
3338.772641,-0.000468
3340.701453,-0.000526
3342.630264,-0.000497
3344.559076,-0.000321
3346.487887,-0.000133
3348.416699,-0.000133
3350.345510,-0.000263
3352.274322,-0.000333
3354.203133,-0.000219
3356.131945,-0.000086
3358.060756,-0.000009
3359.989568,0.000063
3361.918379,-0.000044
3363.847190,-0.000237
3365.776002,-0.000233
3367.704813,-0.000106
3369.633625,0.000002
3371.562436,0.000074
3373.491248,0.000066
3375.420059,0.000055
3377.348871,0.000130
3379.277682,0.000291
3381.206494,0.000501
3383.135305,0.000624
3385.064117,0.000661
3386.992928,0.000587
3388.921739,0.000474
3390.850551,0.000338
3392.779362,0.000197
3394.708174,0.000074
3396.636985,0.000143
3398.565797,0.000341
3400.494608,0.000419
3402.423420,0.000365
3404.352231,0.000218
3406.281043,0.000033
3408.209854,-0.000047
3410.138666,-0.000005
3412.067477,0.000102
3413.996288,0.000305
3415.925100,0.000394
3417.853911,0.000094
3419.782723,-0.000177
3421.711534,-0.000053
3423.640346,0.000103
3425.569157,0.000088
3427.497969,0.000076
3429.426780,0.000155
3431.355592,0.000241
3433.284403,0.000340
3435.213215,0.000526
3437.142026,0.000683
3439.070837,0.000674
3440.999649,0.000450
3442.928460,0.000171
3444.857272,0.000096
3446.786083,0.000252
3448.714895,0.000473
3450.643706,0.000674
3452.572518,0.000780
3454.501329,0.000792
3456.430141,0.000724
3458.358952,0.000578
3460.287764,0.000462
3462.216575,0.000480
3464.145386,0.000536
3466.074198,0.000396
3468.003009,0.000291
3469.931821,0.000509
3471.860632,0.000578
3473.789444,0.000387
3475.718255,0.000381
3477.647067,0.000398
3479.575878,0.000127
3481.504690,-0.000121
3483.433501,-0.000027
3485.362313,0.000174
3487.291124,0.000340
3489.219935,0.000537
3491.148747,0.000703
3493.077558,0.000861
3495.006370,0.000951
3496.935181,0.000863
3498.863993,0.000616
3500.792804,0.000238
3502.721616,0.000021
3504.650427,0.000241
3506.579239,0.000565
3508.508050,0.000707
3510.436862,0.000868
3512.365673,0.001177
3514.294484,0.001482
3516.223296,0.001652
3518.152107,0.001772
3520.080919,0.001794
3522.009730,0.001736
3523.938542,0.002021
3525.867353,0.002661
3527.796165,0.003379
3529.724976,0.004371
3531.653788,0.005604
3533.582599,0.006442
3535.511411,0.006785
3537.440222,0.007157
3539.369034,0.007413
3541.297845,0.007050
3543.226656,0.006235
3545.155468,0.005631
3547.084279,0.005938
3549.013091,0.007035
3550.941902,0.007779
3552.870714,0.007871
3554.799525,0.008172
3556.728337,0.008741
3558.657148,0.009078
3560.585960,0.009128
3562.514771,0.008735
3564.443583,0.007664
3566.372394,0.006541
3568.301205,0.007107
3570.230017,0.009278
3572.158828,0.010470
3574.087640,0.010069
3576.016451,0.009468
3577.945263,0.008971
3579.874074,0.008208
3581.802886,0.007070
3583.731697,0.005498
3585.660509,0.003614
3587.589320,0.003074
3589.518132,0.004778
3591.446943,0.005652
3593.375754,0.004802
3595.304566,0.004915
3597.233377,0.006420
3599.162189,0.007853
3601.091000,0.008725
3603.019812,0.009174
3604.948623,0.008727
3606.877435,0.006876
3608.806246,0.005194
3610.735058,0.004991
3612.663869,0.004896
3614.592681,0.004721
3616.521492,0.004511
3618.450303,0.003691
3620.379115,0.004550
3622.307926,0.006591
3624.236738,0.006601
3626.165549,0.004117
3628.094361,0.000537
3630.023172,0.000856
3631.951984,0.005111
3633.880795,0.007632
3635.809607,0.008673
3637.738418,0.009744
3639.667230,0.010054
3641.596041,0.009682
3643.524852,0.008497
3645.453664,0.005510
3647.382475,0.001437
3649.311287,-0.000409
3651.240098,0.002412
3653.168910,0.006649
3655.097721,0.007892
3657.026533,0.008454
3658.955344,0.010969
3660.884156,0.012647
3662.812967,0.012834
3664.741779,0.012186
3666.670590,0.010173
3668.599401,0.006565
3670.528213,0.003958
3672.457024,0.004283
3674.385836,0.003250
3676.314647,0.002983
3678.243459,0.007474
3680.172270,0.011301
3682.101082,0.012620
3684.029893,0.012587
3685.958705,0.010532
3687.887516,0.007202
3689.816328,0.006211
3691.745139,0.009119
3693.673951,0.012566
3695.602762,0.014135
3697.531573,0.014262
3699.460385,0.013609
3701.389196,0.012588
3703.318008,0.012706
3705.246819,0.013298
3707.175631,0.011796
3709.104442,0.009053
3711.033254,0.007330
3712.962065,0.008504
3714.890877,0.011714
3716.819688,0.013211
3718.748500,0.012834
3720.677311,0.012012
3722.606122,0.011277
3724.534934,0.011065
3726.463745,0.011150
3728.392557,0.011283
3730.321368,0.009788
3732.250180,0.006384
3734.178991,0.004169
3736.107803,0.004707
3738.036614,0.006848
3739.965426,0.008229
3741.894237,0.006484
3743.823049,0.002081
3745.751860,0.000703
3747.680671,0.002372
3749.609483,0.001463
3751.538294,0.001665
3753.467106,0.005969
3755.395917,0.009376
3757.324729,0.010338
3759.253540,0.010310
3761.182352,0.011323
3763.111163,0.012450
3765.039975,0.011845
3766.968786,0.011261
3768.897598,0.011233
3770.826409,0.011978
3772.755220,0.013737
3774.684032,0.014377
3776.612843,0.013652
3778.541655,0.012610
3780.470466,0.012443
3782.399278,0.013412
3784.328089,0.013866
3786.256901,0.014008
3788.185712,0.014607
3790.114524,0.014669
3792.043335,0.014179
3793.972147,0.013146
3795.900958,0.010915
3797.829769,0.009398
3799.758581,0.008097
3801.687392,0.006191
3803.616204,0.007544
3805.545015,0.009137
3807.473827,0.009290
3809.402638,0.011360
3811.331450,0.012637
3813.260261,0.011275
3815.189073,0.008154
3817.117884,0.006096
3819.046696,0.006169
3820.975507,0.005438
3822.904318,0.007106
3824.833130,0.010379
3826.761941,0.010982
3828.690753,0.010886
3830.619564,0.010105
3832.548376,0.008326
3834.477187,0.007181
3836.405999,0.005628
3838.334810,0.004509
3840.263622,0.006021
3842.192433,0.008407
3844.121245,0.010112
3846.050056,0.011227
3847.978867,0.010504
3849.907679,0.007246
3851.836490,0.002404
3853.765302,-0.000407
3855.694113,0.003472
3857.622925,0.008598
3859.551736,0.009711
3861.480548,0.008451
3863.409359,0.006895
3865.338171,0.006066
3867.266982,0.006039
3869.195794,0.004890
3871.124605,0.004967
3873.053417,0.007082
3874.982228,0.007987
3876.911039,0.008522
3878.839851,0.007839
3880.768662,0.005870
3882.697474,0.005899
3884.626285,0.005635
3886.555097,0.005121
3888.483908,0.006439
3890.412720,0.006333
3892.341531,0.005663
3894.270343,0.006795
3896.199154,0.006865
3898.127966,0.004554
3900.056777,0.002115
3901.985588,0.001285
3903.914400,0.001958
3905.843211,0.003969
3907.772023,0.006334
3909.700834,0.007390
3911.629646,0.007259
3913.558457,0.006606
3915.487269,0.005480
3917.416080,0.004555
3919.344892,0.004497
3921.273703,0.004913
3923.202515,0.004795
3925.131326,0.004228
3927.060137,0.004171
3928.988949,0.004204
3930.917760,0.003689
3932.846572,0.003479
3934.775383,0.004021
3936.704195,0.004330
3938.633006,0.004044
3940.561818,0.003426
3942.490629,0.002652
3944.419441,0.002521
3946.348252,0.002735
3948.277064,0.002471
3950.205875,0.002328
3952.134686,0.002473
3954.063498,0.002481
3955.992309,0.002358
3957.921121,0.002145
3959.849932,0.001894
3961.778744,0.001709
3963.707555,0.001637
3965.636367,0.001461
3967.565178,0.001084
3969.493990,0.000823
3971.422801,0.000771
3973.351613,0.000570
3975.280424,0.000262
3977.209235,0.000138
3979.138047,0.000168
3981.066858,0.000153
3982.995670,0.000247
3984.924481,0.000231
3986.853293,0.000204
3988.782104,0.000217
3990.710916,0.000208
3992.639727,0.000217
3994.568539,0.000110
3996.497350,-0.000027
3998.426162,0.000075
4000.354973,0.000258
