XLabel,Wavenumber
YLabel,Absorbance
FileType,Absorbance
DisplayDirection,20300
PeakDirection,20312
898.826141,0.001570
900.754953,0.000100
902.683764,-0.000188
904.612576,-0.000359
906.541387,0.000098
908.470199,0.000260
910.399010,0.000026
912.327822,0.000008
914.256633,0.000333
916.185445,0.000914
918.114256,0.000586
920.043068,0.000019
921.971879,0.000513
923.900690,0.000924
925.829502,0.000635
927.758313,0.000052
929.687125,0.000447
931.615936,0.000910
933.544748,0.000990
935.473559,0.000985
937.402371,0.000685
939.331182,0.000316
941.259994,0.000374
943.188805,0.000614
945.117617,0.000670
947.046428,0.000494
948.975240,0.000251
950.904051,0.000163
952.832862,0.000309
954.761674,0.000497
956.690485,0.000615
958.619297,0.000637
960.548108,0.000442
962.476920,0.000311
964.405731,0.000394
966.334543,0.000278
968.263354,-0.000105
970.192166,-0.000141
972.120977,0.000328
974.049789,0.000417
975.978600,0.000040
977.907411,0.000021
979.836223,0.000194
981.765034,0.000194
983.693846,0.000072
985.622657,-0.000001
987.551469,0.000233
989.480280,0.000468
991.409092,0.000330
993.337903,0.000159
995.266715,0.000167
997.195526,0.000136
999.124338,0.000102
1001.053149,0.000184
1002.981960,0.000206
1004.910772,0.000184
1006.839583,0.000216
1008.768395,0.000134
1010.697206,0.000073
1012.626018,0.000123
1014.554829,0.000110
1016.483641,0.000138
1018.412452,0.000171
1020.341264,0.000132
1022.270075,0.000164
1024.198887,0.000159
1026.127698,0.000180
1028.056509,0.000417
1029.985321,0.000629
1031.914132,0.000768
1033.842944,0.000936
1035.771755,0.000989
1037.700567,0.001026
1039.629378,0.001082
1041.558190,0.000991
1043.487001,0.000881
1045.415813,0.000845
1047.344624,0.000812
1049.273436,0.000740
1051.202247,0.000629
1053.131058,0.000550
1055.059870,0.000485
1056.988681,0.000361
1058.917493,0.000166
1060.846304,-0.000021
1062.775116,-0.000098
1064.703927,-0.000143
1066.632739,-0.000226
1068.561550,-0.000204
1070.490362,-0.000125
1072.419173,-0.000123
1074.347985,-0.000158
1076.276796,-0.000090
1078.205607,0.000070
1080.134419,0.000107
1082.063230,-0.000042
1083.992042,-0.000167
1085.920853,-0.000092
1087.849665,0.000062
1089.778476,0.000073
1091.707288,0.000040
1093.636099,0.000071
1095.564911,0.000048
1097.493722,0.000048
1099.422534,0.000141
1101.351345,0.000187
1103.280156,0.000190
1105.208968,0.000178
1107.137779,0.000119
1109.066591,0.000071
1110.995402,0.000050
1112.924214,0.000036
1114.853025,0.000038
1116.781837,0.000118
1118.710648,0.000223
1120.639460,0.000169
1122.568271,0.000119
1124.497083,0.000240
1126.425894,0.000274
1128.354706,0.000188
1130.283517,0.000166
1132.212328,0.000092
1134.141140,-0.000033
1136.069951,-0.000004
1137.998763,0.000127
1139.927574,0.000154
1141.856386,0.000174
1143.785197,0.000281
1145.714009,0.000347
1147.642820,0.000330
1149.571632,0.000364
1151.500443,0.000494
1153.429255,0.000610
1155.358066,0.000683
1157.286877,0.000733
1159.215689,0.000761
1161.144500,0.000819
1163.073312,0.000891
1165.002123,0.000940
1166.930935,0.001009
1168.859746,0.001141
1170.788558,0.001327
1172.717369,0.001427
1174.646181,0.001462
1176.574992,0.001634
1178.503804,0.001818
1180.432615,0.001886
1182.361426,0.001921
1184.290238,0.001967
1186.219049,0.002082
1188.147861,0.002285
1190.076672,0.002565
1192.005484,0.002806
1193.934295,0.002891
1195.863107,0.002952
1197.791918,0.002958
1199.720730,0.002803
1201.649541,0.002806
1203.578353,0.003066
1205.507164,0.003169
1207.435975,0.003123
1209.364787,0.003223
1211.293598,0.003382
1213.222410,0.003593
1215.151221,0.003974
1217.080033,0.004298
1219.008844,0.004449
1220.937656,0.004768
1222.866467,0.005178
1224.795279,0.005490
1226.724090,0.006065
1228.652902,0.006799
1230.581713,0.007605
1232.510524,0.008826
1234.439336,0.010419
1236.368147,0.012684
1238.296959,0.016073
1240.225770,0.020808
1242.154582,0.027768
1244.083393,0.037746
1246.012205,0.050641
1247.941016,0.065777
1249.869828,0.081043
1251.798639,0.093078
1253.727451,0.098855
1255.656262,0.097772
1257.585073,0.097756
1259.513885,0.107059
1261.442696,0.114749
1263.371508,0.107436
1265.300319,0.097585
1267.229131,0.099783
1269.157942,0.107788
1271.086754,0.108370
1273.015565,0.096652
1274.944377,0.076998
1276.873188,0.057436
1278.802000,0.043306
1280.730811,0.034969
1282.659622,0.030128
1284.588434,0.027214
1286.517245,0.025767
1288.446057,0.024954
1290.374868,0.024530
1292.303680,0.024559
1294.232491,0.024627
1296.161303,0.024790
1298.090114,0.025351
1300.018926,0.026455
1301.947737,0.027463
1303.876549,0.028182
1305.805360,0.028967
1307.734172,0.029689
1309.662983,0.030583
1311.591794,0.030967
1313.520606,0.030629
1315.449417,0.029621
1317.378229,0.027671
1319.307040,0.025285
1321.235852,0.022942
1323.164663,0.024309
1325.093475,0.026430
1327.022286,0.021537
1328.951098,0.016478
1330.879909,0.016378
1332.808721,0.016323
1334.737532,0.016209
1336.666343,0.016031
1338.595155,0.015105
1340.523966,0.015001
1342.452778,0.014550
1344.381589,0.012480
1346.310401,0.009788
1348.239212,0.007412
1350.168024,0.005460
1352.096835,0.003864
1354.025647,0.002602
1355.954458,0.001852
1357.883270,0.001310
1359.812081,-0.000158
1361.740892,-0.001777
1363.669704,-0.001057
1365.598515,0.001049
1367.527327,0.001590
1369.456138,0.001904
1371.384950,0.001903
1373.313761,0.000625
1375.242573,0.001009
1377.171384,0.002727
1379.100196,0.003318
1381.029007,0.003617
1382.957819,0.003950
1384.886630,0.002781
1386.815441,0.000840
1388.744253,0.001664
1390.673064,0.003505
1392.601876,0.001762
1394.530687,-0.000479
1396.459499,0.000021
1398.388310,0.000527
1400.317122,0.002294
1402.245933,0.004284
1404.174745,0.003737
1406.103556,0.004245
1408.032368,0.005911
1409.961179,0.006483
1411.889990,0.006773
1413.818802,0.007190
1415.747613,0.006015
1417.676425,0.001764
1419.605236,0.001280
1421.534048,0.006167
1423.462859,0.008469
1425.391671,0.009720
1427.320482,0.010794
1429.249294,0.009757
1431.178105,0.010662
1433.106917,0.011974
1435.035728,0.008144
1436.964539,0.006363
1438.893351,0.012109
1440.822162,0.015743
1442.750974,0.016354
1444.679785,0.016430
1446.608597,0.014979
1448.537408,0.014945
1450.466220,0.016599
1452.395031,0.016891
1454.323843,0.012608
1456.252654,0.004185
1458.181466,0.005954
1460.110277,0.015891
1462.039089,0.019065
1463.967900,0.016679
1465.896711,0.017560
1467.825523,0.021284
1469.754334,0.019300
1471.683146,0.012903
1473.611957,0.012564
1475.540769,0.017174
1477.469580,0.021217
1479.398392,0.023456
1481.327203,0.024007
1483.256015,0.024361
1485.184826,0.023096
1487.113638,0.019426
1489.042449,0.016370
1490.971260,0.018206
1492.900072,0.021738
1494.828883,0.019469
1496.757695,0.015422
1498.686506,0.016857
1500.615318,0.020142
1502.544129,0.020334
1504.472941,0.011709
1506.401752,0.000896
1508.330564,0.006313
1510.259375,0.014192
1512.188187,0.016666
1514.116998,0.015918
1516.045809,0.012620
1517.974621,0.010593
1519.903432,0.007417
1521.832244,0.005509
1523.761055,0.010019
1525.689867,0.012774
1527.618678,0.014774
1529.547490,0.017913
1531.476301,0.015725
1533.405113,0.012450
1535.333924,0.015283
1537.262736,0.012472
1539.191547,0.000476
1541.120358,-0.000428
1543.049170,0.007339
1544.977981,0.013954
1546.906793,0.019123
1548.835604,0.020629
1550.764416,0.021159
1552.693227,0.020822
1554.622039,0.019622
1556.550850,0.014962
1558.479662,0.008238
1560.408473,0.022702
1562.337285,0.042606
1564.266096,0.054030
1566.194907,0.065449
1568.123719,0.076587
1570.052530,0.094145
1571.981342,0.121438
1573.910153,0.145270
1575.838965,0.175211
1577.767776,0.221616
1579.696588,0.270694
1581.625399,0.321701
1583.554211,0.375054
1585.483022,0.431606
1587.411834,0.493008
1589.340645,0.559538
1591.269456,0.629734
1593.198268,0.691208
1595.127079,0.732450
1597.055891,0.750043
1598.984702,0.752531
1600.913514,0.737779
1602.842325,0.714858
1604.771137,0.697073
1606.699948,0.674282
1608.628760,0.644968
1610.557571,0.595136
1612.486383,0.534685
1614.415194,0.465268
1616.344005,0.402431
1618.272817,0.461748
1620.201628,0.643349
1622.130440,0.827501
1624.059251,0.940253
1625.988063,1.014119
1627.916874,1.056025
1629.845686,1.044660
1631.774497,0.964752
1633.703309,0.846442
1635.632120,0.700780
1637.560932,0.578420
1639.489743,0.481350
1641.418555,0.380541
1643.347366,0.287244
1645.276177,0.202496
1647.204989,0.127693
1649.133800,0.082173
1651.062612,0.044879
1652.991423,0.008155
1654.920235,0.004046
1656.849046,0.009703
1658.777858,0.008306
1660.706669,0.004483
1662.635481,0.001609
1664.564292,0.003607
1666.493104,0.004383
1668.421915,-0.000605
1670.350726,-0.000183
1672.279538,0.004158
1674.208349,0.004250
1676.137161,0.007551
1678.065972,0.014443
1679.994784,0.017295
1681.923595,0.014373
1683.852407,0.010707
1685.781218,0.019248
1687.710030,0.029035
1689.638841,0.032234
1691.567653,0.035230
1693.496464,0.032238
1695.425275,0.027447
1697.354087,0.031475
1699.282898,0.028899
1701.211710,0.025673
1703.140521,0.032092
1705.069333,0.035566
1706.998144,0.037747
1708.926956,0.044429
1710.855767,0.052864
1712.784579,0.054865
1714.713390,0.049644
1716.642202,0.046682
1718.571013,0.052341
1720.499824,0.061985
1722.428636,0.067195
1724.357447,0.069342
1726.286259,0.071427
1728.215070,0.072100
1730.143882,0.073474
1732.072693,0.072691
1734.001505,0.075607
1735.930316,0.090756
1737.859128,0.101843
1739.787939,0.107202
1741.716751,0.113182
1743.645562,0.116174
1745.574373,0.114487
1747.503185,0.110335
1749.431996,0.105909
1751.360808,0.106473
1753.289619,0.111085
1755.218431,0.111684
1757.147242,0.108895
1759.076054,0.103287
1761.004865,0.089733
1762.933677,0.074189
1764.862488,0.061875
1766.791300,0.047351
1768.720111,0.033709
1770.648922,0.022433
1772.577734,0.014656
1774.506545,0.014846
1776.435357,0.015775
1778.364168,0.014168
1780.292980,0.013021
1782.221791,0.013224
1784.150603,0.013428
1786.079414,0.014120
1788.008226,0.015156
1789.937037,0.012532
1791.865849,0.008465
1793.794660,0.009391
1795.723471,0.011841
1797.652283,0.011331
1799.581094,0.009155
1801.509906,0.008760
1803.438717,0.010698
1805.367529,0.012097
1807.296340,0.011847
1809.225152,0.010568
1811.153963,0.009687
1813.082775,0.009941
1815.011586,0.009785
1816.940398,0.008876
1818.869209,0.008208
1820.798021,0.007809
1822.726832,0.006140
1824.655643,0.004170
1826.584455,0.003875
1828.513266,0.002689
1830.442078,0.002323
1832.370889,0.004973
1834.299701,0.006379
1836.228512,0.006108
1838.157324,0.006301
1840.086135,0.006364
1842.014947,0.003922
1843.943758,0.001035
1845.872570,0.002758
1847.801381,0.005448
1849.730192,0.006217
1851.659004,0.006590
1853.587815,0.006523
1855.516627,0.006294
1857.445438,0.005982
1859.374250,0.005610
1861.303061,0.005343
1863.231873,0.004911
1865.160684,0.003696
1867.089496,0.000937
1869.018307,-0.000536
1870.947119,0.001296
1872.875930,0.003564
1874.804741,0.004747
1876.733553,0.004411
1878.662364,0.003360
1880.591176,0.003359
1882.519987,0.003675
1884.448799,0.003972
1886.377610,0.004232
1888.306422,0.003542
1890.235233,0.003653
1892.164045,0.004900
1894.092856,0.005262
1896.021668,0.005454
1897.950479,0.006075
1899.879290,0.006358
1901.808102,0.006310
1903.736913,0.006236
1905.665725,0.006065
1907.594536,0.005550
1909.523348,0.005127
1911.452159,0.005185
1913.380971,0.005324
1915.309782,0.004305
1917.238594,0.002502
1919.167405,0.002473
1921.096217,0.003070
1923.025028,0.002760
1924.953839,0.003039
1926.882651,0.003365
1928.811462,0.003099
1930.740274,0.002834
1932.669085,0.002551
1934.597897,0.002286
1936.526708,0.002071
1938.455520,0.001820
1940.384331,0.000842
1942.313143,-0.000214
1944.241954,0.000172
1946.170766,0.000897
1948.099577,0.001072
1950.028388,0.001085
1951.957200,0.000970
1953.886011,0.000864
1955.814823,0.000905
1957.743634,0.000994
1959.672446,0.000919
1961.601257,0.000828
1963.530069,0.000751
1965.458880,0.000309
1967.387692,0.000043
1969.316503,0.000408
1971.245315,0.000750
1973.174126,0.000821
1975.102938,0.000780
1977.031749,0.000726
1978.960560,0.000800
1980.889372,0.000859
1982.818183,0.000849
1984.746995,0.000735
1986.675806,0.000511
1988.604618,0.000289
1990.533429,-0.000130
1992.462241,-0.000242
1994.391052,0.000290
1996.319864,0.000558
1998.248675,0.000521
2000.177487,0.000618
2002.106298,0.000624
2004.035109,0.000569
2005.963921,0.000547
2007.892732,0.000512
2009.821544,0.000504
2011.750355,0.000539
2013.679167,0.000481
2015.607978,0.000171
2017.536790,-0.000004
2019.465601,0.000235
2021.394413,0.000439
2023.323224,0.000433
2025.252036,0.000429
2027.180847,0.000437
2029.109658,0.000396
2031.038470,0.000370
2032.967281,0.000412
2034.896093,0.000416
2036.824904,0.000345
2038.753716,0.000321
2040.682527,0.000357
2042.611339,0.000390
2044.540150,0.000398
2046.468962,0.000389
2048.397773,0.000371
2050.326585,0.000351
2052.255396,0.000370
2054.184207,0.000415
2056.113019,0.000416
2058.041830,0.000364
2059.970642,0.000354
2061.899453,0.000341
2063.828265,0.000148
2065.757076,0.000005
2067.685888,0.000151
2069.614699,0.000323
2071.543511,0.000389
2073.472322,0.000428
2075.401134,0.000428
2077.329945,0.000391
2079.258756,0.000354
2081.187568,0.000331
2083.116379,0.000315
2085.045191,0.000376
2086.974002,0.000435
2088.902814,0.000343
2090.831625,0.000262
2092.760437,0.000323
2094.689248,0.000371
2096.618060,0.000371
2098.546871,0.000429
2100.475683,0.000452
2102.404494,0.000441
2104.333305,0.000461
2106.262117,0.000400
2108.190928,0.000363
2110.119740,0.000401
2112.048551,0.000390
2113.977363,0.000422
2115.906174,0.000492
2117.834986,0.000499
2119.763797,0.000512
2121.692609,0.000545
2123.621420,0.000512
2125.550232,0.000440
2127.479043,0.000421
2129.407854,0.000427
2131.336666,0.000365
2133.265477,0.000277
2135.194289,0.000253
2137.123100,0.000253
2139.051912,0.000242
2140.980723,0.000230
2142.909535,0.000224
2144.838346,0.000226
2146.767158,0.000221
2148.695969,0.000261
2150.624781,0.000325
2152.553592,0.000338
2154.482404,0.000363
2156.411215,0.000435
2158.340026,0.000479
2160.268838,0.000442
2162.197649,0.000411
2164.126461,0.000476
2166.055272,0.000549
2167.984084,0.000581
2169.912895,0.000602
2171.841707,0.000641
2173.770518,0.000714
2175.699330,0.000792
2177.628141,0.000881
2179.556953,0.000980
2181.485764,0.001082
2183.414575,0.001202
2185.343387,0.001269
2187.272198,0.001343
2189.201010,0.001529
2191.129821,0.001737
2193.058633,0.001953
2194.987444,0.002210
2196.916256,0.002465
2198.845067,0.002742
2200.773879,0.003041
2202.702690,0.003313
2204.631502,0.003512
2206.560313,0.003632
2208.489124,0.003724
2210.417936,0.003769
2212.346747,0.003757
2214.275559,0.003685
2216.204370,0.003449
2218.133182,0.003003
2220.061993,0.002362
2221.990805,0.001703
2223.919616,0.001518
2225.848428,0.002005
2227.777239,0.002833
2229.706051,0.003648
2231.634862,0.004290
2233.563673,0.004757
2235.492485,0.005023
2237.421296,0.004998
2239.350108,0.004754
2241.278919,0.004386
2243.207731,0.003847
2245.136542,0.003167
2247.065354,0.002514
2248.994165,0.001915
2250.922977,0.001371
2252.851788,0.000960
2254.780600,0.000641
2256.709411,0.000434
2258.638222,0.000376
2260.567034,0.000343
2262.495845,0.000319
2264.424657,0.000312
2266.353468,0.000276
2268.282280,0.000296
2270.211091,0.000383
2272.139903,0.000389
2274.068714,0.000332
2275.997526,0.000339
2277.926337,0.000349
2279.855149,0.000302
2281.783960,0.000294
2283.712771,0.000342
2285.641583,0.000399
2287.570394,0.000428
2289.499206,0.000406
2291.428017,0.000381
2293.356829,0.000392
2295.285640,0.000459
2297.214452,0.000577
2299.143263,0.000620
2301.072075,0.000568
2303.000886,0.000617
2304.929698,0.000752
2306.858509,0.000780
2308.787320,0.000755
2310.716132,0.000843
2312.644943,0.001021
2314.573755,0.001116
2316.502566,0.001086
2318.431378,0.001113
2320.360189,0.001219
2322.289001,0.001221
2324.217812,0.001143
2326.146624,0.001122
2328.075435,0.001153
2330.004247,0.001144
2331.933058,0.001067
2333.861870,0.001052
2335.790681,0.001153
2337.719492,0.001247
2339.648304,0.001208
2341.577115,0.001087
2343.505927,0.001058
2345.434738,0.001017
2347.363550,0.000864
2349.292361,0.000829
2351.221173,0.000954
2353.149984,0.001061
2355.078796,0.001146
2357.007607,0.001174
2358.936419,0.001080
2360.865230,0.001078
2362.794041,0.001222
2364.722853,0.001310
2366.651664,0.001360
2368.580476,0.001426
2370.509287,0.001368
2372.438099,0.001222
2374.366910,0.001162
2376.295722,0.001090
2378.224533,0.000948
2380.153345,0.000809
2382.082156,0.000679
2384.010968,0.000571
2385.939779,0.000446
2387.868590,0.000341
2389.797402,0.000297
2391.726213,0.000276
2393.655025,0.000287
2395.583836,0.000294
2397.512648,0.000335
2399.441459,0.000402
2401.370271,0.000425
2403.299082,0.000452
2405.227894,0.000413
2407.156705,0.000335
2409.085517,0.000351
2411.014328,0.000423
2412.943139,0.000475
2414.871951,0.000453
2416.800762,0.000379
2418.729574,0.000348
2420.658385,0.000372
2422.587197,0.000360
2424.516008,0.000323
2426.444820,0.000343
2428.373631,0.000367
2430.302443,0.000357
2432.231254,0.000342
2434.160066,0.000326
2436.088877,0.000305
2438.017688,0.000312
2439.946500,0.000359
2441.875311,0.000366
2443.804123,0.000349
2445.732934,0.000371
2447.661746,0.000385
2449.590557,0.000391
2451.519369,0.000433
2453.448180,0.000479
2455.376992,0.000463
2457.305803,0.000400
2459.234615,0.000379
2461.163426,0.000407
2463.092237,0.000432
2465.021049,0.000487
2466.949860,0.000571
2468.878672,0.000613
2470.807483,0.000640
2472.736295,0.000675
2474.665106,0.000720
2476.593918,0.000764
2478.522729,0.000776
2480.451541,0.000793
2482.380352,0.000752
2484.309164,0.000678
2486.237975,0.000749
2488.166786,0.000836
2490.095598,0.000804
2492.024409,0.000792
2493.953221,0.000774
2495.882032,0.000705
2497.810844,0.000730
2499.739655,0.000808
2501.668467,0.000852
2503.597278,0.000940
2505.526090,0.001014
2507.454901,0.001006
2509.383713,0.000994
2511.312524,0.000957
2513.241336,0.000863
2515.170147,0.000790
2517.098958,0.000774
2519.027770,0.000749
2520.956581,0.000727
2522.885393,0.000747
2524.814204,0.000740
2526.743016,0.000725
2528.671827,0.000762
2530.600639,0.000749
2532.529450,0.000647
2534.458262,0.000596
2536.387073,0.000647
2538.315885,0.000684
2540.244696,0.000665
2542.173507,0.000646
2544.102319,0.000666
2546.031130,0.000711
2547.959942,0.000713
2549.888753,0.000668
2551.817565,0.000667
2553.746376,0.000712
2555.675188,0.000732
2557.603999,0.000736
2559.532811,0.000755
2561.461622,0.000787
2563.390434,0.000805
2565.319245,0.000770
2567.248056,0.000747
2569.176868,0.000845
2571.105679,0.000980
2573.034491,0.000974
2574.963302,0.000927
2576.892114,0.001035
2578.820925,0.001142
2580.749737,0.001070
2582.678548,0.000952
2584.607360,0.000929
2586.536171,0.001001
2588.464983,0.001097
2590.393794,0.001105
2592.322605,0.001010
2594.251417,0.000885
2596.180228,0.000745
2598.109040,0.000669
2600.037851,0.000721
2601.966663,0.000838
2603.895474,0.000948
2605.824286,0.000972
2607.753097,0.000930
2609.681909,0.000953
2611.610720,0.001007
2613.539532,0.001068
2615.468343,0.001234
2617.397154,0.001437
2619.325966,0.001561
2621.254777,0.001679
2623.183589,0.001787
2625.112400,0.001798
2627.041212,0.001812
2628.970023,0.001857
2630.898835,0.001825
2632.827646,0.001795
2634.756458,0.001854
2636.685269,0.001866
2638.614081,0.001807
2640.542892,0.001697
2642.471703,0.001410
2644.400515,0.001062
2646.329326,0.000852
2648.258138,0.000705
2650.186949,0.000609
2652.115761,0.000634
2654.044572,0.000646
2655.973384,0.000573
2657.902195,0.000545
2659.831007,0.000562
2661.759818,0.000527
2663.688630,0.000467
2665.617441,0.000420
2667.546253,0.000343
2669.475064,0.000242
2671.403875,0.000190
2673.332687,0.000162
2675.261498,0.000176
2677.190310,0.000249
2679.119121,0.000245
2681.047933,0.000164
2682.976744,0.000134
2684.905556,0.000178
2686.834367,0.000179
2688.763179,0.000111
2690.691990,0.000118
2692.620802,0.000176
2694.549613,0.000219
2696.478424,0.000234
2698.407236,0.000197
2700.336047,0.000202
2702.264859,0.000223
2704.193670,0.000172
2706.122482,0.000115
2708.051293,0.000073
2709.980105,0.000051
2711.908916,0.000045
2713.837728,0.000011
2715.766539,-0.000003
2717.695351,0.000040
2719.624162,0.000052
2721.552973,0.000031
2723.481785,0.000005
2725.410596,0.000012
2727.339408,0.000047
2729.268219,0.000030
2731.197031,0.000047
2733.125842,0.000076
2735.054654,0.000040
2736.983465,0.000030
2738.912277,-0.000024
2740.841088,-0.000082
2742.769900,-0.000024
2744.698711,-0.000029
2746.627522,-0.000122
2748.556334,-0.000115
2750.485145,-0.000037
2752.413957,0.000034
2754.342768,0.000123
2756.271580,0.000124
2758.200391,0.000043
2760.129203,0.000064
2762.058014,0.000095
2763.986826,0.000086
2765.915637,0.000102
2767.844449,0.000046
2769.773260,-0.000060
2771.702071,-0.000102
2773.630883,-0.000072
2775.559694,0.000008
2777.488506,0.000046
2779.417317,-0.000007
2781.346129,-0.000058
2783.274940,-0.000038
2785.203752,-0.000004
2787.132563,-0.000024
2789.061375,-0.000030
2790.990186,-0.000003
2792.918998,-0.000035
2794.847809,-0.000034
2796.776620,0.000056
2798.705432,0.000083
2800.634243,0.000041
2802.563055,-0.000006
2804.491866,-0.000069
2806.420678,-0.000102
2808.349489,-0.000122
2810.278301,-0.000153
2812.207112,-0.000075
2814.135924,0.000062
2816.064735,0.000045
2817.993547,-0.000032
2819.922358,-0.000048
2821.851169,-0.000057
2823.779981,0.000016
2825.708792,0.000126
2827.637604,0.000179
2829.566415,0.000223
2831.495227,0.000238
2833.424038,0.000270
2835.352850,0.000363
2837.281661,0.000448
2839.210473,0.000536
2841.139284,0.000650
2843.068096,0.000823
2844.996907,0.001066
2846.925719,0.001325
2848.854530,0.001691
2850.783341,0.002160
2852.712153,0.002639
2854.640964,0.003279
2856.569776,0.004103
2858.498587,0.004978
2860.427399,0.006075
2862.356210,0.007512
2864.285022,0.009219
2866.213833,0.011258
2868.142645,0.013637
2870.071456,0.016259
2872.000268,0.019102
2873.929079,0.022245
2875.857890,0.025664
2877.786702,0.029137
2879.715513,0.032587
2881.644325,0.035981
2883.573136,0.039095
2885.501948,0.041659
2887.430759,0.043528
2889.359571,0.044691
2891.288382,0.045092
2893.217194,0.044529
2895.146005,0.042781
2897.074817,0.040088
2899.003628,0.036731
2900.932439,0.033138
2902.861251,0.029031
2904.790062,0.023502
2906.718874,0.021611
2908.647685,0.029664
2910.576497,0.043377
2912.505308,0.055504
2914.434120,0.064555
2916.362931,0.069898
2918.291743,0.070806
2920.220554,0.067623
2922.149366,0.060996
2924.078177,0.051687
2926.006988,0.040640
2927.935800,0.029370
2929.864611,0.019230
2931.793423,0.011032
2933.722234,0.005151
2935.651046,0.001590
2937.579857,-0.000135
2939.508669,-0.000666
2941.437480,-0.000596
2943.366292,-0.000381
2945.295103,-0.000229
2947.223915,-0.000047
2949.152726,0.000236
2951.081537,0.000635
2953.010349,0.001017
2954.939160,0.001290
2956.867972,0.001516
2958.796783,0.001755
2960.725595,0.002012
2962.654406,0.002284
2964.583218,0.002546
2966.512029,0.002675
2968.440841,0.002696
2970.369652,0.002733
2972.298464,0.002810
2974.227275,0.003010
2976.156086,0.003221
2978.084898,0.003209
2980.013709,0.003134
2981.942521,0.002981
2983.871332,0.002608
2985.800144,0.002251
2987.728955,0.002014
2989.657767,0.001889
2991.586578,0.001790
2993.515390,0.001662
2995.444201,0.001673
2997.373013,0.001726
2999.301824,0.001691
3001.230635,0.001630
3003.159447,0.001641
3005.088258,0.001684
3007.017070,0.001651
3008.945881,0.001658
3010.874693,0.001642
3012.803504,0.001542
3014.732316,0.001543
3016.661127,0.001661
3018.589939,0.001733
3020.518750,0.001631
3022.447562,0.001615
3024.376373,0.001777
3026.305185,0.001797
3028.233996,0.001713
3030.162807,0.001641
3032.091619,0.001645
3034.020430,0.001745
3035.949242,0.001768
3037.878053,0.001832
3039.806865,0.001955
3041.735676,0.002050
3043.664488,0.002201
3045.593299,0.002170
3047.522111,0.002028
3049.450922,0.002124
3051.379734,0.002307
3053.308545,0.002358
3055.237356,0.002279
3057.166168,0.002243
3059.094979,0.002320
3061.023791,0.002397
3062.952602,0.002479
3064.881414,0.002487
3066.810225,0.002483
3068.739037,0.002648
3070.667848,0.002757
3072.596660,0.002702
3074.525471,0.002700
3076.454283,0.002704
3078.383094,0.002632
3080.311905,0.002610
3082.240717,0.002692
3084.169528,0.002869
3086.098340,0.003010
3088.027151,0.002996
3089.955963,0.002949
3091.884774,0.002958
3093.813586,0.002995
3095.742397,0.003034
3097.671209,0.003147
3099.600020,0.003359
3101.528832,0.003592
3103.457643,0.003829
3105.386454,0.004026
3107.315266,0.004217
3109.244077,0.004306
3111.172889,0.004167
3113.101700,0.004078
3115.030512,0.004113
3116.959323,0.004094
3118.888135,0.003976
3120.816946,0.003803
3122.745758,0.003740
3124.674569,0.003722
3126.603381,0.003595
3128.532192,0.003456
3130.461003,0.003287
3132.389815,0.003018
3134.318626,0.002782
3136.247438,0.002636
3138.176249,0.002568
3140.105061,0.002566
3142.033872,0.002470
3143.962684,0.002303
3145.891495,0.002209
3147.820307,0.002189
3149.749118,0.002211
3151.677930,0.002191
3153.606741,0.002176
3155.535552,0.002208
3157.464364,0.002124
3159.393175,0.001970
3161.321987,0.001883
3163.250798,0.001803
3165.179610,0.001779
3167.108421,0.001833
3169.037233,0.001799
3170.966044,0.001748
3172.894856,0.001733
3174.823667,0.001599
3176.752479,0.001424
3178.681290,0.001354
3180.610102,0.001400
3182.538913,0.001405
3184.467724,0.001293
3186.396536,0.001236
3188.325347,0.001233
3190.254159,0.001200
3192.182970,0.001124
3194.111782,0.001075
3196.040593,0.001074
3197.969405,0.001018
3199.898216,0.000999
3201.827028,0.000962
3203.755839,0.000869
3205.684651,0.000877
3207.613462,0.000822
3209.542273,0.000664
3211.471085,0.000613
3213.399896,0.000673
3215.328708,0.000684
3217.257519,0.000545
3219.186331,0.000377
3221.115142,0.000321
3223.043954,0.000343
3224.972765,0.000308
3226.901577,0.000236
3228.830388,0.000264
3230.759200,0.000311
3232.688011,0.000261
3234.616822,0.000184
3236.545634,0.000141
3238.474445,0.000118
3240.403257,0.000182
3242.332068,0.000236
3244.260880,0.000135
3246.189691,0.000141
3248.118503,0.000227
3250.047314,0.000102
3251.976126,-0.000024
3253.904937,0.000017
3255.833749,0.000084
3257.762560,0.000089
3259.691371,0.000035
3261.620183,0.000006
3263.548994,0.000093
3265.477806,0.000187
3267.406617,0.000139
3269.335429,0.000144
3271.264240,0.000288
3273.193052,0.000251
3275.121863,0.000043
3277.050675,0.000052
3278.979486,0.000193
3280.908298,0.000139
3282.837109,0.000091
3284.765920,0.000156
3286.694732,0.000095
3288.623543,-0.000037
3290.552355,-0.000060
3292.481166,0.000067
3294.409978,0.000235
3296.338789,0.000213
3298.267601,0.000085
3300.196412,0.000060
3302.125224,0.000026
3304.054035,0.000059
3305.982847,0.000185
3307.911658,0.000072
3309.840469,-0.000092
3311.769281,-0.000113
3313.698092,-0.000110
3315.626904,0.000042
3317.555715,0.000096
3319.484527,-0.000141
3321.413338,-0.000312
3323.342150,-0.000244
3325.270961,-0.000082
3327.199773,-0.000061
3329.128584,-0.000155
3331.057396,-0.000155
3332.986207,-0.000077
3334.915018,-0.000046
3336.843830,-0.000138
3338.772641,-0.000243
3340.701453,-0.000276
3342.630264,-0.000269
3344.559076,-0.000161
3346.487887,-0.000034
3348.416699,-0.000021
3350.345510,-0.000014
3352.274322,0.000024
3354.203133,0.000036
3356.131945,0.000067
3358.060756,0.000088
3359.989568,0.000039
3361.918379,-0.000048
3363.847190,-0.000128
3365.776002,-0.000205
3367.704813,-0.000254
3369.633625,-0.000064
3371.562436,0.000212
3373.491248,0.000210
3375.420059,0.000152
3377.348871,0.000083
3379.277682,-0.000005
3381.206494,0.000226
3383.135305,0.000495
3385.064117,0.000597
3386.992928,0.000715
3388.921739,0.000567
3390.850551,0.000302
3392.779362,0.000049
3394.708174,-0.000111
3396.636985,0.000050
3398.565797,0.000351
3400.494608,0.000426
3402.423420,0.000386
3404.352231,0.000272
3406.281043,-0.000020
3408.209854,-0.000153
3410.138666,-0.000041
3412.067477,0.000039
3413.996288,0.000183
3415.925100,0.000182
3417.853911,-0.000195
3419.782723,-0.000382
3421.711534,-0.000243
3423.640346,-0.000184
3425.569157,-0.000172
3427.497969,-0.000101
3429.426780,0.000054
3431.355592,0.000174
3433.284403,0.000093
3435.213215,0.000144
3437.142026,0.000335
3439.070837,0.000243
3440.999649,-0.000049
3442.928460,-0.000193
3444.857272,-0.000270
3446.786083,-0.000302
3448.714895,-0.000005
3450.643706,0.000293
3452.572518,0.000156
3454.501329,0.000040
3456.430141,0.000162
3458.358952,0.000085
3460.287764,-0.000153
3462.216575,-0.000088
3464.145386,0.000109
3466.074198,-0.000004
3468.003009,-0.000106
3469.931821,-0.000036
3471.860632,-0.000097
3473.789444,-0.000138
3475.718255,-0.000096
3477.647067,-0.000219
3479.575878,-0.000411
3481.504690,-0.000404
3483.433501,-0.000324
3485.362313,-0.000320
3487.291124,-0.000178
3489.219935,0.000043
3491.148747,0.000157
3493.077558,0.000135
3495.006370,-0.000027
3496.935181,-0.000119
3498.863993,-0.000119
3500.792804,-0.000275
3502.721616,-0.000519
3504.650427,-0.000427
3506.579239,-0.000107
3508.508050,-0.000089
3510.436862,-0.000055
3512.365673,0.000397
3514.294484,0.000815
3516.223296,0.000910
3518.152107,0.000924
3520.080919,0.000959
3522.009730,0.000956
3523.938542,0.001123
3525.867353,0.001620
3527.796165,0.002378
3529.724976,0.003430
3531.653788,0.004693
3533.582599,0.005650
3535.511411,0.005993
3537.440222,0.006201
3539.369034,0.006368
3541.297845,0.005949
3543.226656,0.005142
3545.155468,0.004577
3547.084279,0.004823
3549.013091,0.005895
3550.941902,0.006577
3552.870714,0.006513
3554.799525,0.006690
3556.728337,0.007179
3558.657148,0.007570
3560.585960,0.007733
3562.514771,0.007320
3564.443583,0.006131
3566.372394,0.004945
3568.301205,0.005563
3570.230017,0.007725
3572.158828,0.008837
3574.087640,0.008483
3576.016451,0.007949
3577.945263,0.007451
3579.874074,0.006728
3581.802886,0.005595
3583.731697,0.004036
3585.660509,0.002298
3587.589320,0.001809
3589.518132,0.003419
3591.446943,0.004384
3593.375754,0.003743
3595.304566,0.003806
3597.233377,0.005041
3599.162189,0.006301
3601.091000,0.007122
3603.019812,0.007568
3604.948623,0.007167
3606.877435,0.005355
3608.806246,0.003711
3610.735058,0.003544
3612.663869,0.003436
3614.592681,0.003360
3616.521492,0.003318
3618.450303,0.002448
3620.379115,0.003059
3622.307926,0.005003
3624.236738,0.005296
3626.165549,0.003169
3628.094361,-0.000313
3630.023172,0.000001
3631.951984,0.004208
3633.880795,0.006638
3635.809607,0.007538
3637.738418,0.008385
3639.667230,0.008627
3641.596041,0.008379
3643.524852,0.007269
3645.453664,0.004350
3647.382475,0.000478
3649.311287,-0.001298
3651.240098,0.001421
3653.168910,0.005693
3655.097721,0.007159
3657.026533,0.007833
3658.955344,0.010280
3660.884156,0.011855
3662.812967,0.011922
3664.741779,0.011277
3666.670590,0.009417
3668.599401,0.005781
3670.528213,0.003066
3672.457024,0.003458
3674.385836,0.002501
3676.314647,0.002350
3678.243459,0.006808
3680.172270,0.010491
3682.101082,0.011955
3684.029893,0.012159
3685.958705,0.010261
3687.887516,0.006979
3689.816328,0.005795
3691.745139,0.008574
3693.673951,0.011982
3695.602762,0.013427
3697.531573,0.013495
3699.460385,0.012933
3701.389196,0.011978
3703.318008,0.012001
3705.246819,0.012587
3707.175631,0.011240
3709.104442,0.008585
3711.033254,0.006896
3712.962065,0.008007
3714.890877,0.011057
3716.819688,0.012541
3718.748500,0.012330
3720.677311,0.011681
3722.606122,0.010974
3724.534934,0.010669
3726.463745,0.010728
3728.392557,0.010857
3730.321368,0.009278
3732.250180,0.005823
3734.178991,0.003629
3736.107803,0.004174
3738.036614,0.006339
3739.965426,0.007795
3741.894237,0.006168
3743.823049,0.001938
3745.751860,0.000610
3747.680671,0.002210
3749.609483,0.001337
3751.538294,0.001474
3753.467106,0.005677
3755.395917,0.009188
3757.324729,0.010172
3759.253540,0.010047
3761.182352,0.011063
3763.111163,0.012248
3765.039975,0.011693
3766.968786,0.011152
3768.897598,0.011085
3770.826409,0.011666
3772.755220,0.013365
3774.684032,0.014152
3776.612843,0.013550
3778.541655,0.012526
3780.470466,0.012347
3782.399278,0.013278
3784.328089,0.013757
3786.256901,0.014066
3788.185712,0.014704
3790.114524,0.014547
3792.043335,0.013920
3793.972147,0.012921
3795.900958,0.010681
3797.829769,0.009144
3799.758581,0.007932
3801.687392,0.006088
3803.616204,0.007309
3805.545015,0.008828
3807.473827,0.009149
3809.402638,0.011352
3811.331450,0.012597
3813.260261,0.011163
3815.189073,0.008050
3817.117884,0.006120
3819.046696,0.006242
3820.975507,0.005481
3822.904318,0.007190
3824.833130,0.010471
3826.761941,0.010995
3828.690753,0.010895
3830.619564,0.010188
3832.548376,0.008342
3834.477187,0.007178
3836.405999,0.005791
3838.334810,0.004686
3840.263622,0.006098
3842.192433,0.008406
3844.121245,0.010048
3846.050056,0.011213
3847.978867,0.010606
3849.907679,0.007481
3851.836490,0.002712
3853.765302,-0.000159
3855.694113,0.003420
3857.622925,0.008478
3859.551736,0.009634
3861.480548,0.008529
3863.409359,0.006918
3865.338171,0.005941
3867.266982,0.006089
3869.195794,0.005024
3871.124605,0.004846
3873.053417,0.006941
3874.982228,0.007958
3876.911039,0.008403
3878.839851,0.007683
3880.768662,0.005859
3882.697474,0.006047
3884.626285,0.005817
3886.555097,0.005231
3888.483908,0.006474
3890.412720,0.006372
3892.341531,0.005731
3894.270343,0.006658
3896.199154,0.006485
3898.127966,0.004340
3900.056777,0.002154
3901.985588,0.001336
3903.914400,0.001982
3905.843211,0.003952
3907.772023,0.006371
3909.700834,0.007563
3911.629646,0.007440
3913.558457,0.006747
3915.487269,0.005561
3917.416080,0.004513
3919.344892,0.004423
3921.273703,0.004899
3923.202515,0.004819
3925.131326,0.004325
3927.060137,0.004317
3928.988949,0.004259
3930.917760,0.003701
3932.846572,0.003531
3934.775383,0.004078
3936.704195,0.004434
3938.633006,0.004208
3940.561818,0.003608
3942.490629,0.002844
3944.419441,0.002702
3946.348252,0.002878
3948.277064,0.002614
3950.205875,0.002512
3952.134686,0.002609
3954.063498,0.002540
3955.992309,0.002459
3957.921121,0.002360
3959.849932,0.002194
3961.778744,0.001961
3963.707555,0.001833
3965.636367,0.001728
3967.565178,0.001330
3969.493990,0.000947
3971.422801,0.000885
3973.351613,0.000738
3975.280424,0.000436
3977.209235,0.000349
3979.138047,0.000293
3981.066858,0.000334
3982.995670,0.000277
3984.924481,0.000150
3986.853293,0.000199
3988.782104,0.000251
3990.710916,0.000108
3992.639727,-0.000064
3994.568539,-0.000057
3996.497350,0.000179
3998.426162,0.000280
4000.354973,0.000231
