XLabel,Wavenumber
YLabel,Absorbance
FileType,Absorbance
DisplayDirection,20300
PeakDirection,20312
898.826141,0.002651
900.754953,0.001125
902.683764,0.000395
904.612576,-0.000269
906.541387,0.000187
908.470199,0.000662
910.399010,0.000488
912.327822,0.000121
914.256633,-0.000233
916.185445,-0.000103
918.114256,-0.000125
920.043068,-0.000248
921.971879,0.000124
923.900690,0.000326
925.829502,0.000308
927.758313,0.000546
929.687125,0.000559
931.615936,0.000398
933.544748,0.000125
935.473559,0.000089
937.402371,-0.000150
939.331182,-0.000316
941.259994,-0.000077
943.188805,0.000030
945.117617,0.000151
947.046428,0.000289
948.975240,0.000186
950.904051,0.000061
952.832862,0.000026
954.761674,0.000170
956.690485,0.000344
958.619297,0.000169
960.548108,-0.000137
962.476920,-0.000103
964.405731,0.000006
966.334543,-0.000142
968.263354,-0.000392
970.192166,-0.000353
972.120977,0.000125
974.049789,0.000233
975.978600,-0.000043
977.907411,0.000074
979.836223,0.000020
981.765034,-0.000299
983.693846,-0.000250
985.622657,-0.000176
987.551469,-0.000196
989.480280,-0.000065
991.409092,0.000050
993.337903,0.000012
995.266715,0.000011
997.195526,0.000078
999.124338,0.000048
1001.053149,0.000069
1002.981960,0.000116
1004.910772,0.000052
1006.839583,0.000084
1008.768395,0.000168
1010.697206,0.000226
1012.626018,0.000359
1014.554829,0.000467
1016.483641,0.000494
1018.412452,0.000525
1020.341264,0.000616
1022.270075,0.000647
1024.198887,0.000572
1026.127698,0.000635
1028.056509,0.000846
1029.985321,0.001002
1031.914132,0.001165
1033.842944,0.001406
1035.771755,0.001591
1037.700567,0.001674
1039.629378,0.001689
1041.558190,0.001601
1043.487001,0.001394
1045.415813,0.001145
1047.344624,0.000970
1049.273436,0.000775
1051.202247,0.000549
1053.131058,0.000508
1055.059870,0.000494
1056.988681,0.000363
1058.917493,0.000279
1060.846304,0.000211
1062.775116,0.000195
1064.703927,0.000150
1066.632739,0.000022
1068.561550,-0.000032
1070.490362,0.000043
1072.419173,0.000166
1074.347985,0.000276
1076.276796,0.000349
1078.205607,0.000386
1080.134419,0.000356
1082.063230,0.000264
1083.992042,0.000172
1085.920853,0.000187
1087.849665,0.000301
1089.778476,0.000289
1091.707288,0.000186
1093.636099,0.000204
1095.564911,0.000230
1097.493722,0.000187
1099.422534,0.000176
1101.351345,0.000183
1103.280156,0.000161
1105.208968,0.000118
1107.137779,0.000054
1109.066591,-0.000052
1110.995402,-0.000089
1112.924214,-0.000019
1114.853025,-0.000006
1116.781837,-0.000003
1118.710648,0.000016
1120.639460,-0.000071
1122.568271,-0.000128
1124.497083,-0.000055
1126.425894,-0.000003
1128.354706,-0.000053
1130.283517,-0.000098
1132.212328,-0.000126
1134.141140,-0.000204
1136.069951,-0.000240
1137.998763,-0.000242
1139.927574,-0.000252
1141.856386,-0.000197
1143.785197,-0.000083
1145.714009,-0.000082
1147.642820,-0.000113
1149.571632,-0.000015
1151.500443,0.000161
1153.429255,0.000349
1155.358066,0.000486
1157.286877,0.000556
1159.215689,0.000685
1161.144500,0.000786
1163.073312,0.000809
1165.002123,0.000942
1166.930935,0.001165
1168.859746,0.001316
1170.788558,0.001396
1172.717369,0.001427
1174.646181,0.001458
1176.574992,0.001661
1178.503804,0.002006
1180.432615,0.002282
1182.361426,0.002403
1184.290238,0.002515
1186.219049,0.002742
1188.147861,0.002978
1190.076672,0.003316
1192.005484,0.003709
1193.934295,0.003859
1195.863107,0.003893
1197.791918,0.003886
1199.720730,0.003726
1201.649541,0.003710
1203.578353,0.003949
1205.507164,0.004126
1207.435975,0.004236
1209.364787,0.004566
1211.293598,0.005095
1213.222410,0.005545
1215.151221,0.006205
1217.080033,0.007083
1219.008844,0.007710
1220.937656,0.008741
1222.866467,0.009974
1224.795279,0.010952
1226.724090,0.012839
1228.652902,0.015191
1230.581713,0.017799
1232.510524,0.021717
1234.439336,0.026401
1236.368147,0.032847
1238.296959,0.042670
1240.225770,0.055785
1242.154582,0.074547
1244.083393,0.101615
1246.012205,0.136172
1247.941016,0.176393
1249.869828,0.217315
1251.798639,0.249727
1253.727451,0.264479
1255.656262,0.259984
1257.585073,0.258348
1259.513885,0.281583
1261.442696,0.303482
1263.371508,0.285599
1265.300319,0.257938
1267.229131,0.261224
1269.157942,0.282222
1271.086754,0.283552
1273.015565,0.250968
1274.944377,0.197601
1276.873188,0.144556
1278.802000,0.105537
1280.730811,0.081572
1282.659622,0.066557
1284.588434,0.056390
1286.517245,0.050073
1288.446057,0.045428
1290.374868,0.041728
1292.303680,0.039223
1294.232491,0.036744
1296.161303,0.034665
1298.090114,0.033715
1300.018926,0.033667
1301.947737,0.033598
1303.876549,0.032936
1305.805360,0.032784
1307.734172,0.033680
1309.662983,0.034770
1311.591794,0.034878
1313.520606,0.034047
1315.449417,0.032334
1317.378229,0.029827
1319.307040,0.027153
1321.235852,0.024548
1323.164663,0.025355
1325.093475,0.027097
1327.022286,0.022770
1328.951098,0.018244
1330.879909,0.017989
1332.808721,0.017718
1334.737532,0.017530
1336.666343,0.017482
1338.595155,0.016754
1340.523966,0.016272
1342.452778,0.015127
1344.381589,0.012831
1346.310401,0.010183
1348.239212,0.007812
1350.168024,0.005849
1352.096835,0.004226
1354.025647,0.003105
1355.954458,0.002487
1357.883270,0.001876
1359.812081,0.000783
1361.740892,-0.000392
1363.669704,-0.000209
1365.598515,0.000723
1367.527327,0.000798
1369.456138,0.000770
1371.384950,0.000775
1373.313761,-0.000013
1375.242573,-0.000079
1377.171384,0.000889
1379.100196,0.001318
1381.029007,0.001377
1382.957819,0.001579
1384.886630,0.001233
1386.815441,0.000541
1388.744253,0.001175
1390.673064,0.002174
1392.601876,0.001263
1394.530687,0.000076
1396.459499,0.000385
1398.388310,0.000613
1400.317122,0.001557
1402.245933,0.002769
1404.174745,0.002434
1406.103556,0.002488
1408.032368,0.003358
1409.961179,0.003682
1411.889990,0.003804
1413.818802,0.004099
1415.747613,0.003694
1417.676425,0.001692
1419.605236,0.001448
1421.534048,0.003883
1423.462859,0.005066
1425.391671,0.005766
1427.320482,0.006311
1429.249294,0.005719
1431.178105,0.006212
1433.106917,0.007009
1435.035728,0.005070
1436.964539,0.004021
1438.893351,0.006927
1440.822162,0.008822
1442.750974,0.009070
1444.679785,0.009020
1446.608597,0.008345
1448.537408,0.008395
1450.466220,0.009094
1452.395031,0.009079
1454.323843,0.006894
1456.252654,0.002511
1458.181466,0.003316
1460.110277,0.008584
1462.039089,0.010325
1463.967900,0.008902
1465.896711,0.009145
1467.825523,0.011007
1469.754334,0.009836
1471.683146,0.006267
1473.611957,0.005997
1475.540769,0.008449
1477.469580,0.010566
1479.398392,0.011657
1481.327203,0.011883
1483.256015,0.012044
1485.184826,0.011297
1487.113638,0.009379
1489.042449,0.007850
1490.971260,0.008715
1492.900072,0.010474
1494.828883,0.009340
1496.757695,0.007211
1498.686506,0.007913
1500.615318,0.009623
1502.544129,0.009642
1504.472941,0.005018
1506.401752,-0.000782
1508.330564,0.002153
1510.259375,0.006407
1512.188187,0.007653
1514.116998,0.007142
1516.045809,0.005257
1517.974621,0.004138
1519.903432,0.002534
1521.832244,0.001538
1523.761055,0.003978
1525.689867,0.005477
1527.618678,0.006536
1529.547490,0.008286
1531.476301,0.007278
1533.405113,0.005572
1535.333924,0.007162
1537.262736,0.006020
1539.191547,0.000422
1541.120358,0.000843
1543.049170,0.005336
1544.977981,0.009421
1546.906793,0.012808
1548.835604,0.014559
1550.764416,0.016244
1552.693227,0.017741
1554.622039,0.019612
1556.550850,0.020448
1558.479662,0.021946
1560.408473,0.036869
1562.337285,0.054562
1564.266096,0.070142
1566.194907,0.088851
1568.123719,0.109912
1570.052530,0.140576
1571.981342,0.180504
1573.910153,0.221063
1575.838965,0.276363
1577.767776,0.347491
1579.696588,0.419038
1581.625399,0.496470
1583.554211,0.574211
1585.483022,0.653392
1587.411834,0.741810
1589.340645,0.838662
1591.269456,0.942904
1593.198268,1.036383
1595.127079,1.093946
1597.055891,1.107097
1598.984702,1.097041
1600.913514,1.062957
1602.842325,1.022114
1604.771137,0.996028
1606.699948,0.970762
1608.628760,0.944051
1610.557571,0.882779
1612.486383,0.802715
1614.415194,0.712167
1616.344005,0.633351
1618.272817,0.719804
1620.201628,0.988153
1622.130440,1.266563
1624.059251,1.402766
1625.988063,1.503187
1627.916874,1.575318
1629.845686,1.563861
1631.774497,1.431127
1633.703309,1.246467
1635.632120,1.023273
1637.560932,0.849335
1639.489743,0.713681
1641.418555,0.567370
1643.347366,0.433149
1645.276177,0.316296
1647.204989,0.207655
1649.133800,0.135014
1651.062612,0.084078
1652.991423,0.036594
1654.920235,0.018665
1656.849046,0.015221
1658.777858,0.009418
1660.706669,0.004121
1662.635481,0.000446
1664.564292,0.000800
1666.493104,0.001367
1668.421915,-0.000694
1670.350726,0.000889
1672.279538,0.005014
1674.208349,0.007476
1676.137161,0.012302
1678.065972,0.019200
1679.994784,0.023951
1681.923595,0.025393
1683.852407,0.025928
1685.781218,0.031654
1687.710030,0.036836
1689.638841,0.037373
1691.567653,0.037188
1693.496464,0.032952
1695.425275,0.032794
1697.354087,0.049056
1699.282898,0.052664
1701.211710,0.036979
1703.140521,0.035695
1705.069333,0.044147
1706.998144,0.052951
1708.926956,0.064478
1710.855767,0.077363
1712.784579,0.084177
1714.713390,0.084753
1716.642202,0.086823
1718.571013,0.093913
1720.499824,0.103041
1722.428636,0.110598
1724.357447,0.118227
1726.286259,0.127158
1728.215070,0.138046
1730.143882,0.152899
1732.072693,0.168313
1734.001505,0.192473
1735.930316,0.225249
1737.859128,0.250135
1739.787939,0.270023
1741.716751,0.284571
1743.645562,0.290243
1745.574373,0.287597
1747.503185,0.280492
1749.431996,0.274539
1751.360808,0.274725
1753.289619,0.278728
1755.218431,0.279070
1757.147242,0.273134
1759.076054,0.256995
1761.004865,0.223793
1762.933677,0.180611
1764.862488,0.143388
1766.791300,0.108249
1768.720111,0.077209
1770.648922,0.053918
1772.577734,0.036276
1774.506545,0.027336
1776.435357,0.022138
1778.364168,0.017397
1780.292980,0.014411
1782.221791,0.013289
1784.150603,0.012795
1786.079414,0.012798
1788.008226,0.013557
1789.937037,0.012359
1791.865849,0.009815
1793.794660,0.009980
1795.723471,0.011234
1797.652283,0.010659
1799.581094,0.008728
1801.509906,0.007809
1803.438717,0.008669
1805.367529,0.009363
1807.296340,0.008841
1809.225152,0.007700
1811.153963,0.007123
1813.082775,0.007601
1815.011586,0.008109
1816.940398,0.008309
1818.869209,0.008557
1820.798021,0.008749
1822.726832,0.008276
1824.655643,0.007721
1826.584455,0.008207
1828.513266,0.008289
1830.442078,0.008395
1832.370889,0.010080
1834.299701,0.011587
1836.228512,0.012321
1838.157324,0.013030
1840.086135,0.013513
1842.014947,0.012934
1843.943758,0.011861
1845.872570,0.012330
1847.801381,0.013142
1849.730192,0.013132
1851.659004,0.012983
1853.587815,0.012593
1855.516627,0.011992
1857.445438,0.011232
1859.374250,0.010403
1861.303061,0.009325
1863.231873,0.007917
1865.160684,0.005854
1867.089496,0.002665
1869.018307,0.000266
1870.947119,-0.000418
1872.875930,0.002550
1874.804741,0.007815
1876.733553,0.005794
1878.662364,0.000041
1880.591176,0.000413
1882.519987,0.003337
1884.448799,0.005840
1886.377610,0.008464
1888.306422,0.010258
1890.235233,0.012278
1892.164045,0.014470
1894.092856,0.016135
1896.021668,0.017518
1897.950479,0.018666
1899.879290,0.019492
1901.808102,0.019908
1903.736913,0.020130
1905.665725,0.020045
1907.594536,0.019575
1909.523348,0.018997
1911.452159,0.018419
1913.380971,0.017697
1915.309782,0.016090
1917.238594,0.013901
1919.167405,0.012978
1921.096217,0.012641
1923.025028,0.011516
1924.953839,0.010479
1926.882651,0.009504
1928.811462,0.008229
1930.740274,0.007042
1932.669085,0.005946
1934.597897,0.004908
1936.526708,0.003963
1938.455520,0.003153
1940.384331,0.002034
1942.313143,0.000929
1944.241954,0.000743
1946.170766,0.000825
1948.099577,0.000625
1950.028388,0.000389
1951.957200,0.000191
1953.886011,0.000053
1955.814823,0.000012
1957.743634,0.000031
1959.672446,-0.000004
1961.601257,0.000020
1963.530069,0.000065
1965.458880,-0.000102
1967.387692,-0.000275
1969.316503,-0.000109
1971.245315,0.000030
1973.174126,0.000068
1975.102938,0.000112
1977.031749,0.000053
1978.960560,0.000018
1980.889372,0.000062
1982.818183,0.000036
1984.746995,-0.000082
1986.675806,-0.000190
1988.604618,-0.000271
1990.533429,-0.000461
1992.462241,-0.000470
1994.391052,-0.000178
1996.319864,-0.000076
1998.248675,-0.000090
2000.177487,0.000040
2002.106298,0.000071
2004.035109,-0.000024
2005.963921,-0.000055
2007.892732,-0.000069
2009.821544,-0.000077
2011.750355,-0.000008
2013.679167,-0.000047
2015.607978,-0.000298
2017.536790,-0.000460
2019.465601,-0.000368
2021.394413,-0.000238
2023.323224,-0.000191
2025.252036,-0.000155
2027.180847,-0.000131
2029.109658,-0.000164
2031.038470,-0.000193
2032.967281,-0.000161
2034.896093,-0.000142
2036.824904,-0.000179
2038.753716,-0.000182
2040.682527,-0.000137
2042.611339,-0.000138
2044.540150,-0.000195
2046.468962,-0.000197
2048.397773,-0.000171
2050.326585,-0.000242
2052.255396,-0.000276
2054.184207,-0.000176
2056.113019,-0.000166
2058.041830,-0.000264
2059.970642,-0.000280
2061.899453,-0.000285
2063.828265,-0.000398
2065.757076,-0.000481
2067.685888,-0.000422
2069.614699,-0.000300
2071.543511,-0.000226
2073.472322,-0.000263
2075.401134,-0.000346
2077.329945,-0.000378
2079.258756,-0.000338
2081.187568,-0.000267
2083.116379,-0.000243
2085.045191,-0.000248
2086.974002,-0.000261
2088.902814,-0.000312
2090.831625,-0.000353
2092.760437,-0.000369
2094.689248,-0.000396
2096.618060,-0.000387
2098.546871,-0.000311
2100.475683,-0.000267
2102.404494,-0.000253
2104.333305,-0.000218
2106.262117,-0.000245
2108.190928,-0.000299
2110.119740,-0.000280
2112.048551,-0.000239
2113.977363,-0.000209
2115.906174,-0.000187
2117.834986,-0.000171
2119.763797,-0.000082
2121.692609,-0.000002
2123.621420,-0.000074
2125.550232,-0.000168
2127.479043,-0.000176
2129.407854,-0.000141
2131.336666,-0.000129
2133.265477,-0.000185
2135.194289,-0.000245
2137.123100,-0.000258
2139.051912,-0.000246
2140.980723,-0.000271
2142.909535,-0.000315
2144.838346,-0.000306
2146.767158,-0.000295
2148.695969,-0.000292
2150.624781,-0.000279
2152.553592,-0.000275
2154.482404,-0.000234
2156.411215,-0.000130
2158.340026,-0.000031
2160.268838,-0.000041
2162.197649,-0.000123
2164.126461,-0.000124
2166.055272,-0.000061
2167.984084,-0.000044
2169.912895,-0.000069
2171.841707,-0.000039
2173.770518,0.000049
2175.699330,0.000074
2177.628141,0.000052
2179.556953,0.000078
2181.485764,0.000127
2183.414575,0.000163
2185.343387,0.000162
2187.272198,0.000154
2189.201010,0.000215
2191.129821,0.000314
2193.058633,0.000437
2194.987444,0.000550
2196.916256,0.000595
2198.845067,0.000704
2200.773879,0.000909
2202.702690,0.001012
2204.631502,0.001041
2206.560313,0.001159
2208.489124,0.001266
2210.417936,0.001275
2212.346747,0.001249
2214.275559,0.001171
2216.204370,0.001023
2218.133182,0.000821
2220.061993,0.000561
2221.990805,0.000329
2223.919616,0.000294
2225.848428,0.000519
2227.777239,0.000900
2229.706051,0.001263
2231.634862,0.001509
2233.563673,0.001676
2235.492485,0.001797
2237.421296,0.001839
2239.350108,0.001748
2241.278919,0.001545
2243.207731,0.001315
2245.136542,0.001042
2247.065354,0.000771
2248.994165,0.000576
2250.922977,0.000364
2252.851788,0.000130
2254.780600,0.000012
2256.709411,0.000026
2258.638222,0.000039
2260.567034,0.000028
2262.495845,0.000073
2264.424657,0.000136
2266.353468,0.000152
2268.282280,0.000165
2270.211091,0.000222
2272.139903,0.000276
2274.068714,0.000269
2275.997526,0.000243
2277.926337,0.000295
2279.855149,0.000351
2281.783960,0.000292
2283.712771,0.000274
2285.641583,0.000358
2287.570394,0.000366
2289.499206,0.000327
2291.428017,0.000294
2293.356829,0.000197
2295.285640,0.000209
2297.214452,0.000466
2299.143263,0.000637
2301.072075,0.000550
2303.000886,0.000508
2304.929698,0.000613
2306.858509,0.000710
2308.787320,0.000773
2310.716132,0.000847
2312.644943,0.000902
2314.573755,0.000900
2316.502566,0.000838
2318.431378,0.000725
2320.360189,0.000637
2322.289001,0.000581
2324.217812,0.000522
2326.146624,0.000517
2328.075435,0.000515
2330.004247,0.000398
2331.933058,0.000236
2333.861870,0.000192
2335.790681,0.000153
2337.719492,0.000053
2339.648304,0.000013
2341.577115,-0.000023
2343.505927,-0.000002
2345.434738,0.000122
2347.363550,0.000213
2349.292361,0.000204
2351.221173,0.000035
2353.149984,-0.000189
2355.078796,-0.000236
2357.007607,-0.000218
2358.936419,-0.000278
2360.865230,-0.000299
2362.794041,-0.000262
2364.722853,-0.000172
2366.651664,-0.000055
2368.580476,-0.000009
2370.509287,0.000008
2372.438099,0.000030
2374.366910,0.000117
2376.295722,0.000237
2378.224533,0.000158
2380.153345,-0.000010
2382.082156,0.000028
2384.010968,0.000108
2385.939779,0.000008
2387.868590,-0.000086
2389.797402,-0.000102
2391.726213,-0.000162
2393.655025,-0.000183
2395.583836,-0.000153
2397.512648,-0.000168
2399.441459,-0.000183
2401.370271,-0.000110
2403.299082,-0.000000
2405.227894,-0.000027
2407.156705,-0.000116
2409.085517,-0.000098
2411.014328,-0.000030
2412.943139,0.000001
2414.871951,-0.000016
2416.800762,-0.000078
2418.729574,-0.000117
2420.658385,-0.000065
2422.587197,-0.000041
2424.516008,-0.000099
2426.444820,-0.000087
2428.373631,-0.000005
2430.302443,0.000016
2432.231254,0.000012
2434.160066,0.000023
2436.088877,-0.000022
2438.017688,-0.000038
2439.946500,0.000017
2441.875311,0.000026
2443.804123,0.000009
2445.732934,-0.000013
2447.661746,-0.000048
2449.590557,-0.000031
2451.519369,0.000044
2453.448180,0.000131
2455.376992,0.000148
2457.305803,0.000124
2459.234615,0.000165
2461.163426,0.000213
2463.092237,0.000255
2465.021049,0.000336
2466.949860,0.000381
2468.878672,0.000387
2470.807483,0.000472
2472.736295,0.000633
2474.665106,0.000725
2476.593918,0.000708
2478.522729,0.000696
2480.451541,0.000706
2482.380352,0.000634
2484.309164,0.000570
2486.237975,0.000646
2488.166786,0.000655
2490.095598,0.000616
2492.024409,0.000806
2493.953221,0.000910
2495.882032,0.000702
2497.810844,0.000578
2499.739655,0.000640
2501.668467,0.000741
2503.597278,0.000877
2505.526090,0.000996
2507.454901,0.001058
2509.383713,0.001066
2511.312524,0.000974
2513.241336,0.000767
2515.170147,0.000569
2517.098958,0.000474
2519.027770,0.000411
2520.956581,0.000332
2522.885393,0.000282
2524.814204,0.000310
2526.743016,0.000358
2528.671827,0.000346
2530.600639,0.000334
2532.529450,0.000319
2534.458262,0.000252
2536.387073,0.000231
2538.315885,0.000213
2540.244696,0.000154
2542.173507,0.000169
2544.102319,0.000195
2546.031130,0.000181
2547.959942,0.000210
2549.888753,0.000254
2551.817565,0.000294
2553.746376,0.000327
2555.675188,0.000314
2557.603999,0.000317
2559.532811,0.000373
2561.461622,0.000441
2563.390434,0.000491
2565.319245,0.000449
2567.248056,0.000380
2569.176868,0.000455
2571.105679,0.000615
2573.034491,0.000702
2574.963302,0.000711
2576.892114,0.000751
2578.820925,0.000862
2580.749737,0.000911
2582.678548,0.000824
2584.607360,0.000733
2586.536171,0.000744
2588.464983,0.000847
2590.393794,0.000951
2592.322605,0.000881
2594.251417,0.000683
2596.180228,0.000517
2598.109040,0.000416
2600.037851,0.000442
2601.966663,0.000558
2603.895474,0.000698
2605.824286,0.000810
2607.753097,0.000839
2609.681909,0.000982
2611.610720,0.001295
2613.539532,0.001692
2615.468343,0.002201
2617.397154,0.002643
2619.325966,0.002911
2621.254777,0.003143
2623.183589,0.003402
2625.112400,0.003624
2627.041212,0.003708
2628.970023,0.003715
2630.898835,0.003705
2632.827646,0.003650
2634.756458,0.003655
2636.685269,0.003721
2638.614081,0.003606
2640.542892,0.003156
2642.471703,0.002400
2644.400515,0.001560
2646.329326,0.000956
2648.258138,0.000615
2650.186949,0.000414
2652.115761,0.000324
2654.044572,0.000268
2655.973384,0.000189
2657.902195,0.000133
2659.831007,0.000149
2661.759818,0.000169
2663.688630,0.000124
2665.617441,0.000075
2667.546253,-0.000021
2669.475064,-0.000149
2671.403875,-0.000203
2673.332687,-0.000205
2675.261498,-0.000119
2677.190310,-0.000048
2679.119121,-0.000086
2681.047933,-0.000086
2682.976744,-0.000058
2684.905556,-0.000082
2686.834367,-0.000147
2688.763179,-0.000163
2690.691990,-0.000106
2692.620802,-0.000136
2694.549613,-0.000178
2696.478424,-0.000115
2698.407236,-0.000055
2700.336047,-0.000009
2702.264859,-0.000007
2704.193670,-0.000075
2706.122482,-0.000130
2708.051293,-0.000168
2709.980105,-0.000220
2711.908916,-0.000236
2713.837728,-0.000155
2715.766539,-0.000028
2717.695351,0.000013
2719.624162,-0.000071
2721.552973,-0.000140
2723.481785,-0.000090
2725.410596,-0.000025
2727.339408,-0.000074
2729.268219,-0.000156
2731.197031,-0.000112
2733.125842,-0.000069
2735.054654,-0.000124
2736.983465,-0.000124
2738.912277,-0.000113
2740.841088,-0.000112
2742.769900,-0.000063
2744.698711,-0.000071
2746.627522,-0.000100
2748.556334,-0.000105
2750.485145,-0.000152
2752.413957,-0.000158
2754.342768,-0.000080
2756.271580,-0.000047
2758.200391,-0.000045
2760.129203,-0.000023
2762.058014,-0.000049
2763.986826,-0.000038
2765.915637,0.000003
2767.844449,-0.000033
2769.773260,-0.000098
2771.702071,-0.000213
2773.630883,-0.000263
2775.559694,-0.000136
2777.488506,-0.000080
2779.417317,-0.000172
2781.346129,-0.000202
2783.274940,-0.000124
2785.203752,-0.000120
2787.132563,-0.000198
2789.061375,-0.000172
2790.990186,-0.000135
2792.918998,-0.000183
2794.847809,-0.000167
2796.776620,-0.000113
2798.705432,-0.000114
2800.634243,-0.000106
2802.563055,-0.000084
2804.491866,-0.000130
2806.420678,-0.000226
2808.349489,-0.000247
2810.278301,-0.000197
2812.207112,-0.000118
2814.135924,-0.000013
2816.064735,0.000010
2817.993547,-0.000037
2819.922358,-0.000041
2821.851169,0.000043
2823.779981,0.000176
2825.708792,0.000201
2827.637604,0.000207
2829.566415,0.000327
2831.495227,0.000410
2833.424038,0.000508
2835.352850,0.000697
2837.281661,0.000834
2839.210473,0.001008
2841.139284,0.001319
2843.068096,0.001625
2844.996907,0.001939
2846.925719,0.002446
2848.854530,0.003160
2850.783341,0.003953
2852.712153,0.004824
2854.640964,0.005884
2856.569776,0.007138
2858.498587,0.008595
2860.427399,0.010495
2862.356210,0.012935
2864.285022,0.015768
2866.213833,0.019013
2868.142645,0.022799
2870.071456,0.027156
2872.000268,0.031948
2873.929079,0.037126
2875.857890,0.042703
2877.786702,0.048481
2879.715513,0.054275
2881.644325,0.059869
2883.573136,0.064952
2885.501948,0.069112
2887.430759,0.072052
2889.359571,0.073829
2891.288382,0.074446
2893.217194,0.073528
2895.146005,0.070608
2897.074817,0.066215
2899.003628,0.060927
2900.932439,0.055186
2902.861251,0.048337
2904.790062,0.039105
2906.718874,0.035985
2908.647685,0.049102
2910.576497,0.071630
2912.505308,0.091728
2914.434120,0.106582
2916.362931,0.115091
2918.291743,0.116367
2920.220554,0.111035
2922.149366,0.100219
2924.078177,0.085171
2926.006988,0.067216
2927.935800,0.048942
2929.864611,0.032454
2931.793423,0.018930
2933.722234,0.009311
2935.651046,0.003619
2937.579857,0.000910
2939.508669,0.000035
2941.437480,0.000046
2943.366292,0.000253
2945.295103,0.000568
2947.223915,0.000977
2949.152726,0.001420
2951.081537,0.002040
2953.010349,0.002725
2954.939160,0.003289
2956.867972,0.003861
2958.796783,0.004498
2960.725595,0.005031
2962.654406,0.005488
2964.583218,0.005937
2966.512029,0.006132
2968.440841,0.005995
2970.369652,0.005775
2972.298464,0.005771
2974.227275,0.006062
2976.156086,0.006349
2978.084898,0.006306
2980.013709,0.005815
2981.942521,0.004978
2983.871332,0.004010
2985.800144,0.003074
2987.728955,0.002297
2989.657767,0.001689
2991.586578,0.001134
2993.515390,0.000714
2995.444201,0.000528
2997.373013,0.000390
2999.301824,0.000212
3001.230635,0.000077
3003.159447,0.000040
3005.088258,0.000033
3007.017070,-0.000039
3008.945881,-0.000083
3010.874693,-0.000172
3012.803504,-0.000307
3014.732316,-0.000272
3016.661127,-0.000141
3018.589939,-0.000117
3020.518750,-0.000217
3022.447562,-0.000297
3024.376373,-0.000279
3026.305185,-0.000243
3028.233996,-0.000200
3030.162807,-0.000210
3032.091619,-0.000276
3034.020430,-0.000244
3035.949242,-0.000093
3037.878053,0.000058
3039.806865,0.000096
3041.735676,0.000141
3043.664488,0.000308
3045.593299,0.000411
3047.522111,0.000390
3049.450922,0.000411
3051.379734,0.000511
3053.308545,0.000542
3055.237356,0.000492
3057.166168,0.000552
3059.094979,0.000673
3061.023791,0.000715
3062.952602,0.000743
3064.881414,0.000682
3066.810225,0.000589
3068.739037,0.000736
3070.667848,0.000891
3072.596660,0.000846
3074.525471,0.000865
3076.454283,0.000951
3078.383094,0.000953
3080.311905,0.000907
3082.240717,0.000963
3084.169528,0.001244
3086.098340,0.001504
3088.027151,0.001576
3089.955963,0.001703
3091.884774,0.001924
3093.813586,0.002136
3095.742397,0.002398
3097.671209,0.002721
3099.600020,0.003143
3101.528832,0.003612
3103.457643,0.003983
3105.386454,0.004354
3107.315266,0.004751
3109.244077,0.004971
3111.172889,0.004992
3113.101700,0.004949
3115.030512,0.004898
3116.959323,0.004821
3118.888135,0.004732
3120.816946,0.004655
3122.745758,0.004502
3124.674569,0.004233
3126.603381,0.003907
3128.532192,0.003521
3130.461003,0.003029
3132.389815,0.002464
3134.318626,0.001969
3136.247438,0.001612
3138.176249,0.001372
3140.105061,0.001232
3142.033872,0.001066
3143.962684,0.000819
3145.891495,0.000632
3147.820307,0.000526
3149.749118,0.000450
3151.677930,0.000445
3153.606741,0.000547
3155.535552,0.000663
3157.464364,0.000633
3159.393175,0.000492
3161.321987,0.000451
3163.250798,0.000517
3165.179610,0.000526
3167.108421,0.000469
3169.037233,0.000443
3170.966044,0.000478
3172.894856,0.000479
3174.823667,0.000389
3176.752479,0.000329
3178.681290,0.000345
3180.610102,0.000348
3182.538913,0.000253
3184.467724,0.000093
3186.396536,0.000017
3188.325347,0.000050
3190.254159,0.000205
3192.182970,0.000341
3194.111782,0.000237
3196.040593,0.000139
3197.969405,0.000219
3199.898216,0.000319
3201.827028,0.000288
3203.755839,0.000091
3205.684651,0.000009
3207.613462,0.000091
3209.542273,0.000050
3211.471085,0.000027
3213.399896,0.000179
3215.328708,0.000204
3217.257519,0.000045
3219.186331,-0.000007
3221.115142,0.000071
3223.043954,0.000106
3224.972765,0.000072
3226.901577,0.000061
3228.830388,0.000143
3230.759200,0.000216
3232.688011,0.000188
3234.616822,0.000219
3236.545634,0.000340
3238.474445,0.000296
3240.403257,0.000238
3242.332068,0.000315
3244.260880,0.000288
3246.189691,0.000365
3248.118503,0.000531
3250.047314,0.000415
3251.976126,0.000293
3253.904937,0.000335
3255.833749,0.000389
3257.762560,0.000328
3259.691371,0.000133
3261.620183,0.000073
3263.548994,0.000217
3265.477806,0.000408
3267.406617,0.000516
3269.335429,0.000580
3271.264240,0.000685
3273.193052,0.000663
3275.121863,0.000561
3277.050675,0.000577
3278.979486,0.000620
3280.908298,0.000517
3282.837109,0.000369
3284.765920,0.000381
3286.694732,0.000319
3288.623543,0.000092
3290.552355,0.000001
3292.481166,0.000070
3294.409978,0.000179
3296.338789,0.000191
3298.267601,0.000105
3300.196412,0.000105
3302.125224,0.000148
3304.054035,0.000165
3305.982847,0.000138
3307.911658,0.000032
3309.840469,-0.000003
3311.769281,0.000064
3313.698092,0.000142
3315.626904,0.000252
3317.555715,0.000255
3319.484527,0.000019
3321.413338,-0.000092
3323.342150,0.000049
3325.270961,0.000120
3327.199773,-0.000004
3329.128584,-0.000073
3331.057396,0.000006
3332.986207,0.000002
3334.915018,-0.000104
3336.843830,-0.000159
3338.772641,-0.000167
3340.701453,-0.000138
3342.630264,-0.000019
3344.559076,0.000148
3346.487887,0.000300
3348.416699,0.000451
3350.345510,0.000554
3352.274322,0.000591
3354.203133,0.000630
3356.131945,0.000735
3358.060756,0.000908
3359.989568,0.000964
3361.918379,0.000789
3363.847190,0.000561
3365.776002,0.000480
3367.704813,0.000553
3369.633625,0.000736
3371.562436,0.000808
3373.491248,0.000528
3375.420059,0.000245
3377.348871,0.000246
3379.277682,0.000439
3381.206494,0.000803
3383.135305,0.001175
3385.064117,0.001420
3386.992928,0.001419
3388.921739,0.001239
3390.850551,0.001199
3392.779362,0.001194
3394.708174,0.001064
3396.636985,0.000978
3398.565797,0.001041
3400.494608,0.001103
3402.423420,0.001069
3404.352231,0.001020
3406.281043,0.000895
3408.209854,0.000882
3410.138666,0.001038
3412.067477,0.001099
3413.996288,0.001244
3415.925100,0.001271
3417.853911,0.000954
3419.782723,0.000762
3421.711534,0.000715
3423.640346,0.000721
3425.569157,0.000850
3427.497969,0.000952
3429.426780,0.001145
3431.355592,0.001377
3433.284403,0.001399
3435.213215,0.001540
3437.142026,0.001909
3439.070837,0.001973
3440.999649,0.001791
3442.928460,0.001752
3444.857272,0.001696
3446.786083,0.001641
3448.714895,0.001699
3450.643706,0.001733
3452.572518,0.001638
3454.501329,0.001403
3456.430141,0.001252
3458.358952,0.001066
3460.287764,0.000699
3462.216575,0.000494
3464.145386,0.000340
3466.074198,0.000036
3468.003009,-0.000111
3469.931821,-0.000003
3471.860632,0.000097
3473.789444,0.000077
3475.718255,0.000074
3477.647067,-0.000032
3479.575878,-0.000256
3481.504690,-0.000239
3483.433501,-0.000096
3485.362313,-0.000149
3487.291124,-0.000054
3489.219935,0.000183
3491.148747,0.000178
3493.077558,0.000153
3495.006370,0.000230
3496.935181,0.000162
3498.863993,0.000004
3500.792804,-0.000078
3502.721616,0.000057
3504.650427,0.000241
3506.579239,0.000306
3508.508050,0.000390
3510.436862,0.000461
3512.365673,0.000716
3514.294484,0.001061
3516.223296,0.001221
3518.152107,0.001473
3520.080919,0.001612
3522.009730,0.001705
3523.938542,0.002170
3525.867353,0.002628
3527.796165,0.003143
3529.724976,0.004026
3531.653788,0.005015
3533.582599,0.005766
3535.511411,0.006084
3537.440222,0.006320
3539.369034,0.006550
3541.297845,0.006470
3543.226656,0.006254
3545.155468,0.006032
3547.084279,0.006231
3549.013091,0.007191
3550.941902,0.008059
3552.870714,0.008462
3554.799525,0.009082
3556.728337,0.009936
3558.657148,0.010841
3560.585960,0.011932
3562.514771,0.012714
3564.443583,0.013095
3566.372394,0.013642
3568.301205,0.014814
3570.230017,0.016681
3572.158828,0.017918
3574.087640,0.017728
3576.016451,0.017093
3577.945263,0.016514
3579.874074,0.015285
3581.802886,0.013149
3583.731697,0.011007
3585.660509,0.009911
3587.589320,0.011410
3589.518132,0.013731
3591.446943,0.012170
3593.375754,0.009348
3595.304566,0.009981
3597.233377,0.012563
3599.162189,0.014926
3601.091000,0.016656
3603.019812,0.017498
3604.948623,0.017244
3606.877435,0.015802
3608.806246,0.014159
3610.735058,0.012937
3612.663869,0.011672
3614.592681,0.010402
3616.521492,0.009174
3618.450303,0.007774
3620.379115,0.007127
3622.307926,0.007236
3624.236738,0.006788
3626.165549,0.005190
3628.094361,0.002797
3630.023172,0.002426
3631.951984,0.004338
3633.880795,0.005458
3635.809607,0.005814
3637.738418,0.006191
3639.667230,0.006259
3641.596041,0.005957
3643.524852,0.005152
3645.453664,0.003437
3647.382475,0.001256
3649.311287,0.000330
3651.240098,0.001640
3653.168910,0.003625
3655.097721,0.004238
3657.026533,0.004407
3658.955344,0.005479
3660.884156,0.006186
3662.812967,0.006154
3664.741779,0.005674
3666.670590,0.004488
3668.599401,0.002548
3670.528213,0.001105
3672.457024,0.001126
3674.385836,0.000506
3676.314647,0.000257
3678.243459,0.002446
3680.172270,0.004416
3682.101082,0.005113
3684.029893,0.004986
3685.958705,0.003842
3687.887516,0.002235
3689.816328,0.001838
3691.745139,0.003309
3693.673951,0.005081
3695.602762,0.005870
3697.531573,0.005942
3699.460385,0.005716
3701.389196,0.005148
3703.318008,0.005088
3705.246819,0.005359
3707.175631,0.004571
3709.104442,0.003218
3711.033254,0.002383
3712.962065,0.002955
3714.890877,0.004563
3716.819688,0.005296
3718.748500,0.005145
3720.677311,0.004836
3722.606122,0.004553
3724.534934,0.004445
3726.463745,0.004417
3728.392557,0.004506
3730.321368,0.003811
3732.250180,0.002042
3734.178991,0.000983
3736.107803,0.001530
3738.036614,0.002694
3739.965426,0.003261
3741.894237,0.002452
3743.823049,0.000361
3745.751860,-0.000389
3747.680671,0.000475
3749.609483,-0.000017
3751.538294,0.000009
3753.467106,0.002416
3755.395917,0.004304
3757.324729,0.004634
3759.253540,0.004388
3761.182352,0.004821
3763.111163,0.005529
3765.039975,0.005364
3766.968786,0.005104
3768.897598,0.005066
3770.826409,0.005366
3772.755220,0.006345
3774.684032,0.006755
3776.612843,0.006235
3778.541655,0.005597
3780.470466,0.005528
3782.399278,0.006094
3784.328089,0.006411
3786.256901,0.006546
3788.185712,0.007018
3790.114524,0.007099
3792.043335,0.006746
3793.972147,0.006278
3795.900958,0.005188
3797.829769,0.004407
3799.758581,0.003789
3801.687392,0.002705
3803.616204,0.003295
3805.545015,0.004229
3807.473827,0.004470
3809.402638,0.005618
3811.331450,0.006378
3813.260261,0.005729
3815.189073,0.004011
3817.117884,0.002955
3819.046696,0.003113
3820.975507,0.002713
3822.904318,0.003554
3824.833130,0.005292
3826.761941,0.005617
3828.690753,0.005563
3830.619564,0.005174
3832.548376,0.004275
3834.477187,0.003756
3836.405999,0.003024
3838.334810,0.002338
3840.263622,0.003088
3842.192433,0.004483
3844.121245,0.005384
3846.050056,0.005983
3847.978867,0.005823
3849.907679,0.004229
3851.836490,0.001576
3853.765302,-0.000021
3855.694113,0.001931
3857.622925,0.004655
3859.551736,0.005082
3861.480548,0.004274
3863.409359,0.003512
3865.338171,0.003182
3867.266982,0.003233
3869.195794,0.002586
3871.124605,0.002517
3873.053417,0.003661
3874.982228,0.004065
3876.911039,0.004062
3878.839851,0.003683
3880.768662,0.002825
3882.697474,0.002869
3884.626285,0.002651
3886.555097,0.002230
3888.483908,0.002908
3890.412720,0.003000
3892.341531,0.002654
3894.270343,0.003094
3896.199154,0.003035
3898.127966,0.001850
3900.056777,0.000553
3901.985588,0.000058
3903.914400,0.000439
3905.843211,0.001550
3907.772023,0.002821
3909.700834,0.003272
3911.629646,0.003041
3913.558457,0.002654
3915.487269,0.002079
3917.416080,0.001627
3919.344892,0.001642
3921.273703,0.001864
3923.202515,0.001695
3925.131326,0.001287
3927.060137,0.001238
3928.988949,0.001125
3930.917760,0.000809
3932.846572,0.000910
3934.775383,0.001264
3936.704195,0.001400
3938.633006,0.001277
3940.561818,0.000821
3942.490629,0.000350
3944.419441,0.000404
3946.348252,0.000519
3948.277064,0.000302
3950.205875,0.000153
3952.134686,0.000124
3954.063498,0.000073
3955.992309,-0.000029
3957.921121,-0.000188
3959.849932,-0.000189
3961.778744,-0.000144
3963.707555,-0.000019
3965.636367,0.000046
3967.565178,-0.000074
3969.493990,-0.000147
3971.422801,-0.000056
3973.351613,-0.000028
3975.280424,0.000004
3977.209235,0.000131
3979.138047,0.000043
3981.066858,-0.000073
3982.995670,0.000014
3984.924481,0.000053
3986.853293,0.000045
3988.782104,0.000063
3990.710916,0.000115
3992.639727,0.000132
3994.568539,0.000086
3996.497350,0.000074
3998.426162,0.000036
4000.354973,0.000093
