XLabel,Wavenumber
YLabel,Absorbance
FileType,Absorbance
DisplayDirection,20300
PeakDirection,20312
898.826141,0.001232
900.754953,0.001296
902.683764,0.000446
904.612576,0.000536
906.541387,0.001133
908.470199,0.001030
910.399010,0.001218
912.327822,0.001805
914.256633,0.001388
916.185445,0.000806
918.114256,0.000695
920.043068,-0.000241
921.971879,-0.000722
923.900690,0.000001
925.829502,0.000056
927.758313,-0.000461
929.687125,-0.000168
931.615936,0.000881
933.544748,0.001111
935.473559,0.000071
937.402371,-0.000820
939.331182,-0.000731
941.259994,-0.000046
943.188805,0.000209
945.117617,0.000102
947.046428,0.000311
948.975240,0.000363
950.904051,0.000141
952.832862,-0.000037
954.761674,-0.000066
956.690485,0.000170
958.619297,0.000202
960.548108,0.000010
962.476920,-0.000008
964.405731,-0.000166
966.334543,-0.000171
968.263354,0.000146
970.192166,0.000275
972.120977,0.000543
974.049789,0.000570
975.978600,0.000042
977.907411,0.000004
979.836223,0.000197
981.765034,0.000008
983.693846,-0.000004
985.622657,0.000205
987.551469,0.000217
989.480280,0.000111
991.409092,0.000093
993.337903,0.000142
995.266715,0.000195
997.195526,0.000231
999.124338,0.000204
1001.053149,0.000118
1002.981960,0.000092
1004.910772,0.000206
1006.839583,0.000205
1008.768395,0.000089
1010.697206,0.000042
1012.626018,-0.000043
1014.554829,-0.000045
1016.483641,0.000055
1018.412452,0.000061
1020.341264,0.000013
1022.270075,0.000035
1024.198887,0.000180
1026.127698,0.000279
1028.056509,0.000245
1029.985321,0.000257
1031.914132,0.000372
1033.842944,0.000525
1035.771755,0.000649
1037.700567,0.000697
1039.629378,0.000704
1041.558190,0.000705
1043.487001,0.000575
1045.415813,0.000423
1047.344624,0.000497
1049.273436,0.000522
1051.202247,0.000350
1053.131058,0.000217
1055.059870,0.000176
1056.988681,0.000183
1058.917493,0.000177
1060.846304,0.000095
1062.775116,0.000063
1064.703927,0.000132
1066.632739,0.000209
1068.561550,0.000181
1070.490362,0.000084
1072.419173,0.000035
1074.347985,0.000058
1076.276796,0.000099
1078.205607,0.000135
1080.134419,0.000183
1082.063230,0.000193
1083.992042,0.000159
1085.920853,0.000112
1087.849665,0.000065
1089.778476,0.000095
1091.707288,0.000177
1093.636099,0.000194
1095.564911,0.000169
1097.493722,0.000184
1099.422534,0.000220
1101.351345,0.000212
1103.280156,0.000184
1105.208968,0.000151
1107.137779,0.000118
1109.066591,0.000161
1110.995402,0.000182
1112.924214,0.000103
1114.853025,0.000089
1116.781837,0.000142
1118.710648,0.000122
1120.639460,0.000119
1122.568271,0.000165
1124.497083,0.000144
1126.425894,0.000138
1128.354706,0.000196
1130.283517,0.000220
1132.212328,0.000199
1134.141140,0.000134
1136.069951,0.000092
1137.998763,0.000098
1139.927574,0.000087
1141.856386,0.000069
1143.785197,0.000069
1145.714009,0.000029
1147.642820,0.000012
1149.571632,0.000050
1151.500443,0.000068
1153.429255,0.000060
1155.358066,0.000077
1157.286877,0.000109
1159.215689,0.000122
1161.144500,0.000113
1163.073312,0.000118
1165.002123,0.000146
1166.930935,0.000126
1168.859746,0.000076
1170.788558,0.000070
1172.717369,0.000041
1174.646181,0.000002
1176.574992,0.000046
1178.503804,0.000099
1180.432615,0.000135
1182.361426,0.000162
1184.290238,0.000142
1186.219049,0.000109
1188.147861,0.000129
1190.076672,0.000188
1192.005484,0.000214
1193.934295,0.000212
1195.863107,0.000193
1197.791918,0.000119
1199.720730,0.000006
1201.649541,-0.000023
1203.578353,0.000060
1205.507164,0.000081
1207.435975,0.000057
1209.364787,0.000069
1211.293598,0.000145
1213.222410,0.000249
1215.151221,0.000404
1217.080033,0.000639
1219.008844,0.000804
1220.937656,0.001026
1222.866467,0.001332
1224.795279,0.001611
1226.724090,0.002071
1228.652902,0.002630
1230.581713,0.003264
1232.510524,0.004147
1234.439336,0.005047
1236.368147,0.006063
1238.296959,0.007422
1240.225770,0.008781
1242.154582,0.010348
1244.083393,0.012262
1246.012205,0.014126
1247.941016,0.016020
1249.869828,0.017734
1251.798639,0.018873
1253.727451,0.018550
1255.656262,0.016992
1257.585073,0.015731
1259.513885,0.015316
1261.442696,0.018334
1263.371508,0.022210
1265.300319,0.020016
1267.229131,0.016806
1269.157942,0.018119
1271.086754,0.019916
1273.015565,0.020117
1274.944377,0.019275
1276.873188,0.017711
1278.802000,0.016172
1280.730811,0.014795
1282.659622,0.013370
1284.588434,0.011881
1286.517245,0.010609
1288.446057,0.009440
1290.374868,0.008409
1292.303680,0.007640
1294.232491,0.006944
1296.161303,0.006522
1298.090114,0.006303
1300.018926,0.006108
1301.947737,0.006003
1303.876549,0.005893
1305.805360,0.005814
1307.734172,0.005870
1309.662983,0.005926
1311.591794,0.005785
1313.520606,0.005542
1315.449417,0.005313
1317.378229,0.005091
1319.307040,0.004826
1321.235852,0.004481
1323.164663,0.004381
1325.093475,0.004425
1327.022286,0.004080
1328.951098,0.003645
1330.879909,0.003449
1332.808721,0.003244
1334.737532,0.003016
1336.666343,0.002745
1338.595155,0.002448
1340.523966,0.002364
1342.452778,0.002355
1344.381589,0.002161
1346.310401,0.001771
1348.239212,0.001375
1350.168024,0.001129
1352.096835,0.000916
1354.025647,0.000749
1355.954458,0.000730
1357.883270,0.000656
1359.812081,0.000322
1361.740892,-0.000109
1363.669704,-0.000112
1365.598515,0.000145
1367.527327,0.000061
1369.456138,0.000065
1371.384950,0.000125
1373.313761,-0.000125
1375.242573,-0.000049
1377.171384,0.000408
1379.100196,0.000610
1381.029007,0.000750
1382.957819,0.000958
1384.886630,0.000907
1386.815441,0.000770
1388.744253,0.001064
1390.673064,0.001463
1392.601876,0.001319
1394.530687,0.001010
1396.459499,0.001083
1398.388310,0.001187
1400.317122,0.001457
1402.245933,0.001777
1404.174745,0.001690
1406.103556,0.001728
1408.032368,0.001935
1409.961179,0.001930
1411.889990,0.001948
1413.818802,0.002023
1415.747613,0.001746
1417.676425,0.000909
1419.605236,0.000692
1421.534048,0.001358
1423.462859,0.001582
1425.391671,0.001647
1427.320482,0.001690
1429.249294,0.001430
1431.178105,0.001491
1433.106917,0.001614
1435.035728,0.000884
1436.964539,0.000351
1438.893351,0.001154
1440.822162,0.001739
1442.750974,0.001745
1444.679785,0.001644
1446.608597,0.001310
1448.537408,0.001197
1450.466220,0.001381
1452.395031,0.001321
1454.323843,0.000511
1456.252654,-0.001038
1458.181466,-0.000946
1460.110277,0.000680
1462.039089,0.001232
1463.967900,0.000689
1465.896711,0.000689
1467.825523,0.001256
1469.754334,0.000857
1471.683146,-0.000317
1473.611957,-0.000433
1475.540769,0.000323
1477.469580,0.001000
1479.398392,0.001386
1481.327203,0.001500
1483.256015,0.001617
1485.184826,0.001429
1487.113638,0.000784
1489.042449,0.000318
1490.971260,0.000748
1492.900072,0.001489
1494.828883,0.001292
1496.757695,0.000725
1498.686506,0.001032
1500.615318,0.001705
1502.544129,0.001907
1504.472941,0.000622
1506.401752,-0.001255
1508.330564,-0.000337
1510.259375,0.001208
1512.188187,0.001800
1514.116998,0.001722
1516.045809,0.001142
1517.974621,0.000864
1519.903432,0.000466
1521.832244,0.000140
1523.761055,0.000985
1525.689867,0.001588
1527.618678,0.001960
1529.547490,0.002564
1531.476301,0.002305
1533.405113,0.001785
1535.333924,0.002309
1537.262736,0.002033
1539.191547,0.000010
1541.120358,-0.000262
1543.049170,0.001014
1544.977981,0.002139
1546.906793,0.003038
1548.835604,0.003342
1550.764416,0.003508
1552.693227,0.003628
1554.622039,0.003646
1556.550850,0.003157
1558.479662,0.002636
1560.408473,0.006000
1562.337285,0.010188
1564.266096,0.013224
1566.194907,0.016659
1568.123719,0.020453
1570.052530,0.026104
1571.981342,0.033838
1573.910153,0.041351
1575.838965,0.051551
1577.767776,0.065725
1579.696588,0.080719
1581.625399,0.097600
1583.554211,0.116528
1585.483022,0.137380
1587.411834,0.159914
1589.340645,0.183674
1591.269456,0.207912
1593.198268,0.229796
1595.127079,0.247597
1597.055891,0.259896
1598.984702,0.266715
1600.913514,0.267295
1602.842325,0.262147
1604.771137,0.253637
1606.699948,0.240536
1608.628760,0.223923
1610.557571,0.202788
1612.486383,0.180094
1614.415194,0.156383
1616.344005,0.134027
1618.272817,0.153516
1620.201628,0.214417
1622.130440,0.279627
1624.059251,0.327801
1625.988063,0.353761
1627.916874,0.364191
1629.845686,0.357764
1631.774497,0.333737
1633.703309,0.298159
1635.632120,0.249440
1637.560932,0.204226
1639.489743,0.168209
1641.418555,0.128922
1643.347366,0.093426
1645.276177,0.065320
1647.204989,0.040657
1649.133800,0.025521
1651.062612,0.015432
1652.991423,0.005776
1654.920235,0.003196
1656.849046,0.003648
1658.777858,0.002872
1660.706669,0.001631
1662.635481,0.000551
1664.564292,0.000388
1666.493104,0.000493
1668.421915,-0.000346
1670.350726,-0.000188
1672.279538,0.000865
1674.208349,0.001405
1676.137161,0.002532
1678.065972,0.004318
1679.994784,0.005462
1681.923595,0.005416
1683.852407,0.004920
1685.781218,0.005966
1687.710030,0.007063
1689.638841,0.006696
1691.567653,0.006076
1693.496464,0.004449
1695.425275,0.003847
1697.354087,0.008277
1699.282898,0.009061
1701.211710,0.003726
1703.140521,0.002785
1705.069333,0.005017
1706.998144,0.007625
1708.926956,0.010472
1710.855767,0.012496
1712.784579,0.012990
1714.713390,0.012133
1716.642202,0.010846
1718.571013,0.010448
1720.499824,0.010779
1722.428636,0.010468
1724.357447,0.009502
1726.286259,0.008729
1728.215070,0.007898
1730.143882,0.007179
1732.072693,0.006352
1734.001505,0.005870
1735.930316,0.007388
1737.859128,0.008656
1739.787939,0.009004
1741.716751,0.009593
1743.645562,0.010021
1745.574373,0.009848
1747.503185,0.009351
1749.431996,0.008837
1751.360808,0.009008
1753.289619,0.009760
1755.218431,0.009916
1757.147242,0.009597
1759.076054,0.009076
1761.004865,0.007635
1762.933677,0.006075
1764.862488,0.004995
1766.791300,0.003434
1768.720111,0.001841
1770.648922,0.000498
1772.577734,-0.000384
1774.506545,-0.000000
1776.435357,0.000491
1778.364168,0.000418
1780.292980,0.000292
1782.221791,0.000407
1784.150603,0.000519
1786.079414,0.000662
1788.008226,0.000855
1789.937037,0.000450
1791.865849,-0.000234
1793.794660,0.000061
1795.723471,0.000652
1797.652283,0.000684
1799.581094,0.000461
1801.509906,0.000520
1803.438717,0.000903
1805.367529,0.001251
1807.296340,0.001354
1809.225152,0.001243
1811.153963,0.001255
1813.082775,0.001563
1815.011586,0.001836
1816.940398,0.001943
1818.869209,0.002061
1820.798021,0.002228
1822.726832,0.002198
1824.655643,0.002118
1826.584455,0.002286
1828.513266,0.002261
1830.442078,0.002348
1832.370889,0.003040
1834.299701,0.003566
1836.228512,0.003742
1838.157324,0.003937
1840.086135,0.004082
1842.014947,0.003949
1843.943758,0.003703
1845.872570,0.003963
1847.801381,0.004411
1849.730192,0.004561
1851.659004,0.004571
1853.587815,0.004507
1855.516627,0.004378
1857.445438,0.004168
1859.374250,0.003914
1861.303061,0.003605
1863.231873,0.003164
1865.160684,0.002485
1867.089496,0.001486
1869.018307,0.000782
1870.947119,0.000702
1872.875930,0.001556
1874.804741,0.002916
1876.733553,0.002364
1878.662364,0.000793
1880.591176,0.000897
1882.519987,0.001750
1884.448799,0.002417
1886.377610,0.003087
1888.306422,0.003557
1890.235233,0.004117
1892.164045,0.004779
1894.092856,0.005284
1896.021668,0.005688
1897.950479,0.006031
1899.879290,0.006240
1901.808102,0.006299
1903.736913,0.006324
1905.665725,0.006259
1907.594536,0.006075
1909.523348,0.005900
1911.452159,0.005708
1913.380971,0.005427
1915.309782,0.004918
1917.238594,0.004239
1919.167405,0.003910
1921.096217,0.003759
1923.025028,0.003396
1924.953839,0.003129
1926.882651,0.002894
1928.811462,0.002510
1930.740274,0.002131
1932.669085,0.001788
1934.597897,0.001492
1936.526708,0.001198
1938.455520,0.000915
1940.384331,0.000589
1942.313143,0.000268
1944.241954,0.000199
1946.170766,0.000226
1948.099577,0.000190
1950.028388,0.000157
1951.957200,0.000121
1953.886011,0.000047
1955.814823,-0.000019
1957.743634,0.000006
1959.672446,-0.000019
1961.601257,-0.000090
1963.530069,-0.000086
1965.458880,-0.000136
1967.387692,-0.000198
1969.316503,-0.000149
1971.245315,-0.000102
1973.174126,-0.000082
1975.102938,-0.000073
1977.031749,-0.000068
1978.960560,-0.000045
1980.889372,-0.000045
1982.818183,-0.000058
1984.746995,-0.000071
1986.675806,-0.000120
1988.604618,-0.000154
1990.533429,-0.000190
1992.462241,-0.000205
1994.391052,-0.000094
1996.319864,0.000008
1998.248675,-0.000004
2000.177487,-0.000026
2002.106298,-0.000038
2004.035109,-0.000043
2005.963921,-0.000022
2007.892732,-0.000024
2009.821544,-0.000029
2011.750355,-0.000021
2013.679167,-0.000056
2015.607978,-0.000111
2017.536790,-0.000108
2019.465601,-0.000063
2021.394413,-0.000044
2023.323224,-0.000043
2025.252036,-0.000036
2027.180847,-0.000038
2029.109658,-0.000051
2031.038470,-0.000077
2032.967281,-0.000057
2034.896093,-0.000022
2036.824904,-0.000072
2038.753716,-0.000094
2040.682527,-0.000056
2042.611339,-0.000052
2044.540150,-0.000036
2046.468962,-0.000006
2048.397773,-0.000011
2050.326585,-0.000043
2052.255396,-0.000073
2054.184207,-0.000054
2056.113019,0.000005
2058.041830,0.000039
2059.970642,0.000013
2061.899453,-0.000017
2063.828265,-0.000046
2065.757076,-0.000071
2067.685888,-0.000033
2069.614699,0.000014
2071.543511,0.000023
2073.472322,0.000002
2075.401134,-0.000043
2077.329945,-0.000054
2079.258756,-0.000026
2081.187568,0.000009
2083.116379,0.000023
2085.045191,0.000006
2086.974002,0.000032
2088.902814,0.000073
2090.831625,0.000031
2092.760437,0.000010
2094.689248,0.000058
2096.618060,0.000049
2098.546871,0.000036
2100.475683,0.000071
2102.404494,0.000090
2104.333305,0.000098
2106.262117,0.000104
2108.190928,0.000116
2110.119740,0.000138
2112.048551,0.000152
2113.977363,0.000147
2115.906174,0.000159
2117.834986,0.000191
2119.763797,0.000168
2121.692609,0.000136
2123.621420,0.000156
2125.550232,0.000157
2127.479043,0.000105
2129.407854,0.000057
2131.336666,0.000082
2133.265477,0.000112
2135.194289,0.000071
2137.123100,0.000026
2139.051912,0.000035
2140.980723,0.000045
2142.909535,0.000036
2144.838346,0.000049
2146.767158,0.000035
2148.695969,-0.000024
2150.624781,-0.000031
2152.553592,0.000025
2154.482404,0.000082
2156.411215,0.000120
2158.340026,0.000125
2160.268838,0.000122
2162.197649,0.000129
2164.126461,0.000115
2166.055272,0.000107
2167.984084,0.000140
2169.912895,0.000180
2171.841707,0.000219
2173.770518,0.000255
2175.699330,0.000255
2177.628141,0.000241
2179.556953,0.000277
2181.485764,0.000331
2183.414575,0.000350
2185.343387,0.000358
2187.272198,0.000385
2189.201010,0.000468
2191.129821,0.000598
2193.058633,0.000687
2194.987444,0.000732
2196.916256,0.000786
2198.845067,0.000858
2200.773879,0.000964
2202.702690,0.001091
2204.631502,0.001195
2206.560313,0.001277
2208.489124,0.001336
2210.417936,0.001344
2212.346747,0.001300
2214.275559,0.001221
2216.204370,0.001101
2218.133182,0.000941
2220.061993,0.000725
2221.990805,0.000488
2223.919616,0.000421
2225.848428,0.000607
2227.777239,0.000922
2229.706051,0.001235
2231.634862,0.001456
2233.563673,0.001614
2235.492485,0.001753
2237.421296,0.001808
2239.350108,0.001748
2241.278919,0.001584
2243.207731,0.001339
2245.136542,0.001086
2247.065354,0.000856
2248.994165,0.000621
2250.922977,0.000390
2252.851788,0.000200
2254.780600,0.000095
2256.709411,0.000053
2258.638222,-0.000021
2260.567034,-0.000055
2262.495845,-0.000012
2264.424657,-0.000011
2266.353468,-0.000039
2268.282280,-0.000063
2270.211091,-0.000057
2272.139903,-0.000004
2274.068714,-0.000007
2275.997526,-0.000018
2277.926337,0.000023
2279.855149,0.000039
2281.783960,0.000051
2283.712771,0.000082
2285.641583,0.000080
2287.570394,0.000025
2289.499206,-0.000064
2291.428017,-0.000150
2293.356829,-0.000176
2295.285640,-0.000030
2297.214452,0.000068
2299.143263,0.000104
2301.072075,0.000103
2303.000886,0.000108
2304.929698,0.000159
2306.858509,0.000210
2308.787320,0.000192
2310.716132,0.000065
2312.644943,-0.000112
2314.573755,-0.000310
2316.502566,-0.000567
2318.431378,-0.000502
2320.360189,-0.000417
2322.289001,-0.000342
2324.217812,-0.000228
2326.146624,-0.000126
2328.075435,-0.000062
2330.004247,-0.000209
2331.933058,-0.000221
2333.861870,-0.000198
2335.790681,-0.000170
2337.719492,-0.000067
2339.648304,0.000094
2341.577115,0.000421
2343.505927,0.000970
2345.434738,0.001808
2347.363550,0.002895
2349.292361,0.003361
2351.221173,0.002665
2353.149984,0.001552
2355.078796,0.000744
2357.007607,0.000262
2358.936419,0.000086
2360.865230,0.000158
2362.794041,-0.000312
2364.722853,-0.000622
2366.651664,-0.000781
2368.580476,-0.000761
2370.509287,-0.000590
2372.438099,-0.000302
2374.366910,0.000025
2376.295722,0.000276
2378.224533,0.000370
2380.153345,0.000288
2382.082156,0.000092
2384.010968,-0.000219
2385.939779,-0.000094
2387.868590,-0.000051
2389.797402,-0.000033
2391.726213,-0.000022
2393.655025,-0.000028
2395.583836,-0.000066
2397.512648,-0.000067
2399.441459,0.000002
2401.370271,0.000013
2403.299082,-0.000016
2405.227894,0.000026
2407.156705,0.000028
2409.085517,-0.000022
2411.014328,-0.000031
2412.943139,-0.000028
2414.871951,0.000021
2416.800762,0.000059
2418.729574,0.000017
2420.658385,0.000010
2422.587197,0.000039
2424.516008,0.000028
2426.444820,0.000013
2428.373631,0.000024
2430.302443,0.000012
2432.231254,-0.000009
2434.160066,0.000027
2436.088877,0.000072
2438.017688,0.000061
2439.946500,0.000064
2441.875311,0.000112
2443.804123,0.000115
2445.732934,0.000065
2447.661746,0.000047
2449.590557,0.000065
2451.519369,0.000096
2453.448180,0.000111
2455.376992,0.000107
2457.305803,0.000139
2459.234615,0.000158
2461.163426,0.000128
2463.092237,0.000139
2465.021049,0.000190
2466.949860,0.000210
2468.878672,0.000200
2470.807483,0.000202
2472.736295,0.000231
2474.665106,0.000252
2476.593918,0.000247
2478.522729,0.000237
2480.451541,0.000262
2482.380352,0.000314
2484.309164,0.000322
2486.237975,0.000285
2488.166786,0.000267
2490.095598,0.000290
2492.024409,0.000350
2493.953221,0.000360
2495.882032,0.000301
2497.810844,0.000271
2499.739655,0.000270
2501.668467,0.000278
2503.597278,0.000334
2505.526090,0.000391
2507.454901,0.000415
2509.383713,0.000398
2511.312524,0.000360
2513.241336,0.000369
2515.170147,0.000334
2517.098958,0.000215
2519.027770,0.000204
2520.956581,0.000277
2522.885393,0.000252
2524.814204,0.000191
2526.743016,0.000189
2528.671827,0.000198
2530.600639,0.000201
2532.529450,0.000194
2534.458262,0.000141
2536.387073,0.000104
2538.315885,0.000154
2540.244696,0.000220
2542.173507,0.000228
2544.102319,0.000191
2546.031130,0.000192
2547.959942,0.000238
2549.888753,0.000227
2551.817565,0.000174
2553.746376,0.000190
2555.675188,0.000184
2557.603999,0.000140
2559.532811,0.000140
2561.461622,0.000105
2563.390434,0.000034
2565.319245,0.000027
2567.248056,0.000078
2569.176868,0.000110
2571.105679,0.000114
2573.034491,0.000142
2574.963302,0.000131
2576.892114,0.000088
2578.820925,0.000086
2580.749737,0.000057
2582.678548,0.000030
2584.607360,0.000045
2586.536171,0.000061
2588.464983,0.000079
2590.393794,0.000056
2592.322605,0.000024
2594.251417,0.000031
2596.180228,0.000024
2598.109040,0.000018
2600.037851,0.000031
2601.966663,0.000008
2603.895474,-0.000040
2605.824286,-0.000017
2607.753097,0.000033
2609.681909,-0.000018
2611.610720,-0.000054
2613.539532,0.000018
2615.468343,0.000054
2617.397154,0.000048
2619.325966,0.000078
2621.254777,0.000096
2623.183589,0.000101
2625.112400,0.000099
2627.041212,0.000101
2628.970023,0.000141
2630.898835,0.000144
2632.827646,0.000106
2634.756458,0.000091
2636.685269,0.000091
2638.614081,0.000115
2640.542892,0.000094
2642.471703,-0.000001
2644.400515,-0.000057
2646.329326,-0.000056
2648.258138,-0.000026
2650.186949,0.000017
2652.115761,-0.000005
2654.044572,-0.000072
2655.973384,-0.000080
2657.902195,-0.000045
2659.831007,-0.000001
2661.759818,0.000007
2663.688630,-0.000027
2665.617441,-0.000012
2667.546253,-0.000016
2669.475064,-0.000080
2671.403875,-0.000120
2673.332687,-0.000100
2675.261498,-0.000017
2677.190310,-0.000011
2679.119121,-0.000082
2681.047933,-0.000075
2682.976744,-0.000058
2684.905556,-0.000067
2686.834367,-0.000061
2688.763179,-0.000049
2690.691990,-0.000031
2692.620802,-0.000033
2694.549613,-0.000055
2696.478424,-0.000082
2698.407236,-0.000078
2700.336047,-0.000011
2702.264859,0.000046
2704.193670,0.000008
2706.122482,-0.000061
2708.051293,-0.000035
2709.980105,0.000044
2711.908916,0.000035
2713.837728,-0.000033
2715.766539,-0.000055
2717.695351,-0.000054
2719.624162,-0.000041
2721.552973,0.000010
2723.481785,0.000064
2725.410596,0.000099
2727.339408,0.000092
2729.268219,0.000027
2731.197031,-0.000027
2733.125842,-0.000015
2735.054654,0.000030
2736.983465,0.000082
2738.912277,0.000129
2740.841088,0.000107
2742.769900,0.000052
2744.698711,0.000043
2746.627522,0.000028
2748.556334,0.000001
2750.485145,-0.000029
2752.413957,-0.000033
2754.342768,0.000082
2756.271580,0.000158
2758.200391,0.000081
2760.129203,0.000044
2762.058014,0.000071
2763.986826,0.000071
2765.915637,0.000092
2767.844449,0.000103
2769.773260,0.000068
2771.702071,0.000054
2773.630883,0.000082
2775.559694,0.000123
2777.488506,0.000134
2779.417317,0.000120
2781.346129,0.000103
2783.274940,0.000079
2785.203752,0.000067
2787.132563,0.000051
2789.061375,0.000022
2790.990186,0.000025
2792.918998,0.000038
2794.847809,0.000024
2796.776620,0.000043
2798.705432,0.000113
2800.634243,0.000124
2802.563055,0.000115
2804.491866,0.000184
2806.420678,0.000180
2808.349489,0.000067
2810.278301,0.000065
2812.207112,0.000150
2814.135924,0.000146
2816.064735,0.000102
2817.993547,0.000082
2819.922358,0.000098
2821.851169,0.000157
2823.779981,0.000157
2825.708792,0.000138
2827.637604,0.000178
2829.566415,0.000154
2831.495227,0.000131
2833.424038,0.000210
2835.352850,0.000239
2837.281661,0.000234
2839.210473,0.000289
2841.139284,0.000361
2843.068096,0.000461
2844.996907,0.000564
2846.925719,0.000640
2848.854530,0.000720
2850.783341,0.000806
2852.712153,0.000902
2854.640964,0.001062
2856.569776,0.001367
2858.498587,0.001708
2860.427399,0.002026
2862.356210,0.002538
2864.285022,0.003189
2866.213833,0.003806
2868.142645,0.004454
2870.071456,0.005188
2872.000268,0.006065
2873.929079,0.007053
2875.857890,0.008076
2877.786702,0.009164
2879.715513,0.010268
2881.644325,0.011324
2883.573136,0.012292
2885.501948,0.013071
2887.430759,0.013644
2889.359571,0.013988
2891.288382,0.014026
2893.217194,0.013769
2895.146005,0.013216
2897.074817,0.012449
2899.003628,0.011498
2900.932439,0.010389
2902.861251,0.009162
2904.790062,0.007538
2906.718874,0.006853
2908.647685,0.009290
2910.576497,0.013659
2912.505308,0.017436
2914.434120,0.020178
2916.362931,0.021854
2918.291743,0.022168
2920.220554,0.021127
2922.149366,0.018913
2924.078177,0.015908
2926.006988,0.012482
2927.935800,0.008992
2929.864611,0.005857
2931.793423,0.003353
2933.722234,0.001581
2935.651046,0.000503
2937.579857,-0.000066
2939.508669,-0.000243
2941.437480,-0.000233
2943.366292,-0.000242
2945.295103,-0.000210
2947.223915,-0.000134
2949.152726,-0.000126
2951.081537,-0.000085
2953.010349,0.000007
2954.939160,0.000033
2956.867972,0.000035
2958.796783,0.000058
2960.725595,0.000059
2962.654406,0.000074
2964.583218,0.000162
2966.512029,0.000226
2968.440841,0.000182
2970.369652,0.000161
2972.298464,0.000183
2974.227275,0.000145
2976.156086,0.000144
2978.084898,0.000182
2980.013709,0.000208
2981.942521,0.000230
2983.871332,0.000124
2985.800144,0.000014
2987.728955,0.000030
2989.657767,0.000004
2991.586578,-0.000028
2993.515390,0.000003
2995.444201,0.000033
2997.373013,0.000047
2999.301824,0.000006
3001.230635,-0.000021
3003.159447,0.000064
3005.088258,0.000142
3007.017070,0.000133
3008.945881,0.000111
3010.874693,0.000117
3012.803504,0.000108
3014.732316,0.000078
3016.661127,0.000120
3018.589939,0.000212
3020.518750,0.000205
3022.447562,0.000136
3024.376373,0.000098
3026.305185,0.000091
3028.233996,0.000136
3030.162807,0.000199
3032.091619,0.000226
3034.020430,0.000187
3035.949242,0.000143
3037.878053,0.000141
3039.806865,0.000124
3041.735676,0.000095
3043.664488,0.000117
3045.593299,0.000131
3047.522111,0.000112
3049.450922,0.000114
3051.379734,0.000133
3053.308545,0.000148
3055.237356,0.000125
3057.166168,0.000043
3059.094979,0.000007
3061.023791,0.000061
3062.952602,0.000054
3064.881414,-0.000002
3066.810225,0.000040
3068.739037,0.000080
3070.667848,0.000058
3072.596660,0.000071
3074.525471,0.000043
3076.454283,-0.000049
3078.383094,-0.000096
3080.311905,-0.000083
3082.240717,-0.000021
3084.169528,-0.000019
3086.098340,-0.000090
3088.027151,-0.000086
3089.955963,-0.000061
3091.884774,-0.000067
3093.813586,-0.000054
3095.742397,-0.000047
3097.671209,-0.000034
3099.600020,-0.000064
3101.528832,-0.000114
3103.457643,-0.000068
3105.386454,-0.000014
3107.315266,0.000007
3109.244077,0.000017
3111.172889,-0.000039
3113.101700,-0.000060
3115.030512,-0.000007
3116.959323,0.000060
3118.888135,0.000104
3120.816946,0.000027
3122.745758,-0.000078
3124.674569,-0.000049
3126.603381,0.000020
3128.532192,-0.000022
3130.461003,-0.000127
3132.389815,-0.000164
3134.318626,-0.000172
3136.247438,-0.000215
3138.176249,-0.000213
3140.105061,-0.000153
3142.033872,-0.000134
3143.962684,-0.000136
3145.891495,-0.000104
3147.820307,-0.000089
3149.749118,-0.000113
3151.677930,-0.000173
3153.606741,-0.000162
3155.535552,-0.000084
3157.464364,-0.000093
3159.393175,-0.000094
3161.321987,-0.000106
3163.250798,-0.000187
3165.179610,-0.000140
3167.108421,-0.000013
3169.037233,0.000089
3170.966044,0.000164
3172.894856,0.000095
3174.823667,-0.000017
3176.752479,-0.000024
3178.681290,0.000002
3180.610102,0.000001
3182.538913,-0.000020
3184.467724,0.000015
3186.396536,0.000108
3188.325347,0.000117
3190.254159,0.000035
3192.182970,0.000035
3194.111782,0.000139
3196.040593,0.000137
3197.969405,0.000051
3199.898216,0.000061
3201.827028,0.000123
3203.755839,0.000134
3205.684651,0.000099
3207.613462,0.000085
3209.542273,0.000083
3211.471085,0.000088
3213.399896,0.000144
3215.328708,0.000169
3217.257519,0.000131
3219.186331,0.000141
3221.115142,0.000277
3223.043954,0.000317
3224.972765,0.000141
3226.901577,0.000114
3228.830388,0.000236
3230.759200,0.000248
3232.688011,0.000244
3234.616822,0.000256
3236.545634,0.000236
3238.474445,0.000248
3240.403257,0.000310
3242.332068,0.000311
3244.260880,0.000268
3246.189691,0.000315
3248.118503,0.000370
3250.047314,0.000345
3251.976126,0.000271
3253.904937,0.000219
3255.833749,0.000247
3257.762560,0.000236
3259.691371,0.000160
3261.620183,0.000212
3263.548994,0.000411
3265.477806,0.000416
3267.406617,0.000180
3269.335429,0.000110
3271.264240,0.000174
3273.193052,0.000184
3275.121863,0.000171
3277.050675,0.000126
3278.979486,0.000209
3280.908298,0.000342
3282.837109,0.000322
3284.765920,0.000279
3286.694732,0.000264
3288.623543,0.000203
3290.552355,0.000120
3292.481166,0.000118
3294.409978,0.000132
3296.338789,0.000109
3298.267601,0.000161
3300.196412,0.000137
3302.125224,0.000028
3304.054035,0.000054
3305.982847,0.000138
3307.911658,0.000112
3309.840469,-0.000035
3311.769281,-0.000080
3313.698092,0.000045
3315.626904,0.000111
3317.555715,0.000061
3319.484527,-0.000007
3321.413338,-0.000036
3323.342150,0.000004
3325.270961,0.000087
3327.199773,0.000088
3329.128584,-0.000016
3331.057396,-0.000078
3332.986207,-0.000060
3334.915018,0.000012
3336.843830,0.000117
3338.772641,0.000172
3340.701453,0.000137
3342.630264,0.000102
3344.559076,0.000201
3346.487887,0.000351
3348.416699,0.000318
3350.345510,0.000254
3352.274322,0.000373
3354.203133,0.000424
3356.131945,0.000318
3358.060756,0.000282
3359.989568,0.000374
3361.918379,0.000456
3363.847190,0.000446
3365.776002,0.000415
3367.704813,0.000389
3369.633625,0.000436
3371.562436,0.000410
3373.491248,0.000183
3375.420059,0.000094
3377.348871,0.000168
3379.277682,0.000336
3381.206494,0.000538
3383.135305,0.000532
3385.064117,0.000595
3386.992928,0.000737
3388.921739,0.000657
3390.850551,0.000497
3392.779362,0.000396
3394.708174,0.000400
3396.636985,0.000378
3398.565797,0.000283
3400.494608,0.000289
3402.423420,0.000361
3404.352231,0.000421
3406.281043,0.000390
3408.209854,0.000379
3410.138666,0.000467
3412.067477,0.000361
3413.996288,0.000144
3415.925100,0.000077
3417.853911,0.000052
3419.782723,-0.000022
3421.711534,-0.000150
3423.640346,-0.000259
3425.569157,-0.000222
3427.497969,-0.000189
3429.426780,-0.000283
3431.355592,-0.000250
3433.284403,-0.000085
3435.213215,0.000064
3437.142026,0.000147
3439.070837,0.000157
3440.999649,0.000090
3442.928460,-0.000018
3444.857272,0.000004
3446.786083,0.000177
3448.714895,0.000324
3450.643706,0.000381
3452.572518,0.000221
3454.501329,0.000014
3456.430141,0.000079
3458.358952,0.000170
3460.287764,0.000148
3462.216575,0.000130
3464.145386,0.000036
3466.074198,-0.000014
3468.003009,0.000132
3469.931821,0.000214
3471.860632,0.000076
3473.789444,-0.000084
3475.718255,-0.000140
3477.647067,-0.000017
3479.575878,0.000160
3481.504690,0.000081
3483.433501,-0.000079
3485.362313,-0.000079
3487.291124,-0.000065
3489.219935,-0.000072
3491.148747,0.000028
3493.077558,0.000170
3495.006370,0.000031
3496.935181,-0.000254
3498.863993,-0.000241
3500.792804,-0.000139
3502.721616,-0.000148
3504.650427,-0.000126
3506.579239,-0.000126
3508.508050,-0.000114
3510.436862,0.000009
3512.365673,0.000112
3514.294484,0.000004
3516.223296,-0.000172
3518.152107,-0.000096
3520.080919,0.000057
3522.009730,0.000002
3523.938542,-0.000049
3525.867353,0.000063
3527.796165,0.000065
3529.724976,-0.000070
3531.653788,-0.000016
3533.582599,0.000162
3535.511411,0.000214
3537.440222,0.000222
3539.369034,0.000409
3541.297845,0.000540
3543.226656,0.000474
3545.155468,0.000520
3547.084279,0.000780
3549.013091,0.001001
3550.941902,0.001109
3552.870714,0.001254
3554.799525,0.001529
3556.728337,0.001731
3558.657148,0.001926
3560.585960,0.002322
3562.514771,0.002699
3564.443583,0.002956
3566.372394,0.003098
3568.301205,0.003391
3570.230017,0.004122
3572.158828,0.004688
3574.087640,0.004869
3576.016451,0.004933
3577.945263,0.004796
3579.874074,0.004537
3581.802886,0.004187
3583.731697,0.003706
3585.660509,0.003342
3587.589320,0.003627
3589.518132,0.004311
3591.446943,0.003986
3593.375754,0.003068
3595.304566,0.003087
3597.233377,0.003931
3599.162189,0.004790
3601.091000,0.005255
3603.019812,0.005439
3604.948623,0.005493
3606.877435,0.005112
3608.806246,0.004535
3610.735058,0.004136
3612.663869,0.003651
3614.592681,0.003228
3616.521492,0.002918
3618.450303,0.002305
3620.379115,0.001965
3622.307926,0.002093
3624.236738,0.001990
3626.165549,0.001649
3628.094361,0.000992
3630.023172,0.000629
3631.951984,0.001092
3633.880795,0.001348
3635.809607,0.001379
3637.738418,0.001573
3639.667230,0.001542
3641.596041,0.001254
3643.524852,0.000972
3645.453664,0.000573
3647.382475,-0.000067
3649.311287,-0.000643
3651.240098,-0.000525
3653.168910,0.000238
3655.097721,0.000593
3657.026533,0.000424
3658.955344,0.000626
3660.884156,0.000952
3662.812967,0.000964
3664.741779,0.000780
3666.670590,0.000466
3668.599401,-0.000225
3670.528213,-0.001039
3672.457024,-0.000988
3674.385836,-0.000909
3676.314647,-0.001119
3678.243459,-0.000499
3680.172270,0.000182
3682.101082,0.000321
3684.029893,0.000306
3685.958705,0.000184
3687.887516,-0.000199
3689.816328,-0.000509
3691.745139,-0.000168
3693.673951,0.000457
3695.602762,0.000740
3697.531573,0.000771
3699.460385,0.000766
3701.389196,0.000567
3703.318008,0.000484
3705.246819,0.000692
3707.175631,0.000614
3709.104442,0.000280
3711.033254,-0.000016
3712.962065,0.000070
3714.890877,0.000660
3716.819688,0.001024
3718.748500,0.001042
3720.677311,0.000931
3722.606122,0.000877
3724.534934,0.001033
3726.463745,0.001055
3728.392557,0.001025
3730.321368,0.000923
3732.250180,0.000452
3734.178991,0.000116
3736.107803,0.000238
3738.036614,0.000472
3739.965426,0.000844
3741.894237,0.001111
3743.823049,0.000477
3745.751860,-0.000137
3747.680671,0.000428
3749.609483,0.000550
3751.538294,0.000240
3753.467106,0.000675
3755.395917,0.001320
3757.324729,0.001584
3759.253540,0.001486
3761.182352,0.001569
3763.111163,0.001793
3765.039975,0.001717
3766.968786,0.001637
3768.897598,0.001562
3770.826409,0.001557
3772.755220,0.001793
3774.684032,0.001904
3776.612843,0.001881
3778.541655,0.001732
3780.470466,0.001600
3782.399278,0.001795
3784.328089,0.001915
3786.256901,0.001839
3788.185712,0.001879
3790.114524,0.001896
3792.043335,0.001845
3793.972147,0.001710
3795.900958,0.001244
3797.829769,0.000959
3799.758581,0.000844
3801.687392,0.000381
3803.616204,0.000521
3805.545015,0.000864
3807.473827,0.000789
3809.402638,0.001080
3811.331450,0.001355
3813.260261,0.001281
3815.189073,0.000800
3817.117884,0.000291
3819.046696,0.000375
3820.975507,0.000150
3822.904318,0.000160
3824.833130,0.000795
3826.761941,0.000987
3828.690753,0.001033
3830.619564,0.000925
3832.548376,0.000462
3834.477187,0.000251
3836.405999,0.000138
3838.334810,-0.000059
3840.263622,0.000071
3842.192433,0.000414
3844.121245,0.000613
3846.050056,0.000711
3847.978867,0.000718
3849.907679,0.000511
3851.836490,-0.000030
3853.765302,-0.000734
3855.694113,-0.000527
3857.622925,0.000255
3859.551736,0.000520
3861.480548,0.000451
3863.409359,0.000309
3865.338171,0.000126
3867.266982,0.000195
3869.195794,0.000065
3871.124605,-0.000120
3873.053417,0.000109
3874.982228,0.000308
3876.911039,0.000604
3878.839851,0.000613
3880.768662,0.000096
3882.697474,0.000134
3884.626285,0.000285
3886.555097,0.000137
3888.483908,0.000378
3890.412720,0.000391
3892.341531,0.000065
3894.270343,0.000115
3896.199154,0.000206
3898.127966,-0.000076
3900.056777,-0.000419
3901.985588,-0.000441
3903.914400,-0.000351
3905.843211,-0.000198
3907.772023,0.000211
3909.700834,0.000543
3911.629646,0.000606
3913.558457,0.000551
3915.487269,0.000391
3917.416080,0.000207
3919.344892,0.000127
3921.273703,0.000112
3923.202515,0.000042
3925.131326,-0.000021
3927.060137,0.000061
3928.988949,0.000125
3930.917760,0.000043
3932.846572,0.000003
3934.775383,0.000133
3936.704195,0.000249
3938.633006,0.000248
3940.561818,0.000232
3942.490629,0.000135
3944.419441,0.000025
3946.348252,0.000043
3948.277064,0.000013
3950.205875,-0.000077
3952.134686,-0.000071
3954.063498,0.000001
3955.992309,-0.000007
3957.921121,-0.000135
3959.849932,-0.000214
3961.778744,-0.000182
3963.707555,-0.000134
3965.636367,-0.000130
3967.565178,-0.000189
3969.493990,-0.000237
3971.422801,-0.000232
3973.351613,-0.000184
3975.280424,-0.000121
3977.209235,-0.000040
3979.138047,-0.000044
3981.066858,-0.000076
3982.995670,-0.000038
3984.924481,-0.000087
3986.853293,-0.000151
3988.782104,-0.000158
3990.710916,-0.000197
3992.639727,-0.000194
3994.568539,-0.000231
3996.497350,-0.000280
3998.426162,-0.000140
4000.354973,0.000000
